MiniLab	10-Dec-12	5:30:11 AM	

Time (sec)	T1 (C)	T2 (C)	T3 (C)	T4 (C)	T5 (C)	P1 (kPa)	P2 (kPa)	P3 (kPa)	P4 (kPa)	P5 (kPa)	Fuel Flow  (L/hr)	N1 (RPM)	Thrust (N)
17088.604	31.029	160.336	643.022	606.231	614.752	0.919	114.307	113.931	12.083	0.926	22.142	64999.420	10.786
17088.804	31.049	160.251	642.891	606.447	614.739	0.952	114.323	113.893	12.061	0.943	22.126	64999.316	10.550
17089.004	31.069	160.278	642.773	606.469	615.122	0.809	114.380	113.905	12.088	0.933	22.144	64996.574	10.462
17089.232	31.063	160.274	642.867	606.420	614.870	0.874	114.276	113.893	12.099	0.938	22.137	64994.682	10.720
17089.432	31.091	160.345	642.927	606.399	614.438	0.973	114.287	113.939	12.193	0.950	22.136	64996.404	10.259
17089.632	31.046	160.250	642.514	606.189	614.787	0.843	114.258	113.862	12.108	0.953	22.136	64997.513	10.407
17089.832	31.099	160.353	643.440	606.132	615.120	0.884	114.312	113.959	12.107	0.935	22.139	64996.981	10.495
17090.032	31.123	160.350	642.984	606.056	614.735	0.767	114.344	113.924	12.118	0.938	22.130	64996.707	10.676
17090.233	31.093	160.392	642.462	605.879	615.013	0.977	114.256	113.902	12.030	0.939	22.128	64998.488	10.314
17090.433	31.112	160.331	642.607	605.722	614.820	0.894	114.423	114.020	12.088	0.941	22.134	64995.081	10.429
17090.632	31.115	160.431	642.962	605.779	615.011	0.930	114.323	113.965	12.036	0.949	22.131	64996.559	10.808
17090.832	31.119	160.375	642.485	605.711	613.991	0.888	114.360	113.968	12.039	0.950	22.126	64995.436	10.961
17091.032	31.103	160.400	642.916	605.637	614.612	0.873	114.419	113.947	12.013	0.929	22.141	64999.560	10.029
17091.232	31.119	160.398	642.522	605.654	614.751	0.933	114.426	114.114	12.065	0.947	22.139	64999.427	10.462
17091.455	31.164	160.400	642.964	605.583	614.888	0.900	114.381	113.984	12.138	0.948	22.131	64998.392	10.396
17091.655	31.133	160.395	642.386	605.531	614.604	0.978	114.294	113.859	12.033	0.928	22.142	64997.409	10.314
17091.855	31.118	160.384	642.467	605.490	614.526	0.970	114.295	113.908	12.086	0.928	22.126	64998.799	10.703
17092.056	31.131	160.479	643.080	605.550	614.569	0.830	114.244	113.879	12.085	0.939	22.125	64998.496	10.150
17092.256	31.185	160.480	642.737	605.643	614.463	0.823	114.314	113.903	11.933	0.945	22.141	64999.390	10.566
17092.456	31.175	160.459	642.862	605.704	614.477	0.748	114.259	113.980	12.015	0.933	22.129	64999.006	10.638
17092.656	31.177	160.423	642.626	605.701	614.360	0.903	114.361	113.959	12.112	0.936	22.126	64994.615	10.265
17092.857	31.148	160.371	642.294	605.635	614.007	0.890	114.355	113.904	12.030	0.923	22.149	64996.944	10.210
17093.058	31.124	160.406	642.563	605.662	614.447	0.837	114.370	113.957	12.025	0.950	22.138	64997.424	10.342
17093.259	31.138	160.461	642.784	605.624	614.175	0.961	114.435	114.011	12.092	0.947	22.128	64998.836	10.133
17093.459	31.177	160.442	642.321	605.756	614.386	0.919	114.302	113.962	12.069	0.946	22.143	64998.200	10.484
17093.659	31.178	160.486	642.892	605.877	614.719	0.846	114.259	113.956	12.028	0.938	22.139	64998.230	10.473
17093.859	31.185	160.480	642.883	606.065	614.669	0.882	114.374	113.854	12.048	0.941	22.126	64998.163	10.342
17094.060	31.213	160.525	642.841	606.366	614.276	0.872	114.369	113.945	12.090	0.954	22.144	64997.912	10.473
17094.261	31.185	160.424	643.352	606.429	614.301	0.898	114.372	113.914	12.037	0.945	22.138	65001.001	10.512
17094.461	31.195	160.562	643.546	606.406	614.402	0.831	114.323	113.974	12.032	0.947	22.134	65001.630	10.265
17094.661	31.191	160.541	643.243	606.353	614.290	0.862	114.405	113.996	12.003	0.945	22.141	65000.484	10.265
17094.861	31.220	160.485	643.195	606.282	613.725	0.922	114.385	113.945	11.972	0.941	22.133	64996.981	9.865
17095.061	31.229	160.545	643.463	606.265	614.042	0.874	114.336	113.896	11.992	0.950	22.125	64997.032	9.958
17095.261	31.181	160.528	642.871	606.178	614.164	0.917	114.334	113.924	12.088	0.946	22.143	64997.306	10.534
17095.461	31.183	160.567	642.504	606.228	613.552	0.894	114.329	113.956	12.114	0.953	22.136	64998.200	10.407
17095.661	31.241	160.571	643.158	606.113	614.190	1.025	114.366	113.918	12.212	0.929	22.131	64998.030	10.385
17095.861	31.207	160.480	643.023	606.039	613.828	0.805	114.420	113.997	12.081	0.945	22.144	64999.915	10.347
17096.077	31.218	160.579	643.448	605.872	613.824	0.848	114.361	113.925	11.927	0.948	22.145	64999.649	10.720
17096.277	31.243	160.580	643.667	605.777	614.091	0.933	114.259	113.895	12.083	0.932	22.132	64997.853	10.693
17096.477	31.258	160.604	642.477	605.721	614.061	0.845	114.308	113.954	12.083	0.951	22.144	64999.597	10.506
17096.677	31.270	160.595	642.525	605.629	613.674	0.828	114.352	113.940	12.094	0.943	22.144	64999.464	10.385
17096.877	31.249	160.589	642.953	605.560	613.539	0.862	114.225	113.899	12.049	0.940	22.132	64999.420	10.616
17097.077	31.235	160.580	642.506	605.529	614.170	0.859	114.266	113.906	12.135	0.936	22.142	64999.250	10.347
17097.277	31.234	160.624	643.498	605.502	613.467	0.841	114.383	113.928	12.112	0.943	22.136	64996.242	9.887
17097.477	31.241	160.637	642.400	605.476	613.692	0.896	114.316	113.936	12.088	0.939	22.132	64997.291	10.188
17097.677	31.311	160.662	643.300	605.344	613.599	0.913	114.217	113.894	12.119	0.946	22.136	64995.303	10.298
17097.877	31.290	160.657	642.986	605.141	614.357	0.874	114.341	113.926	12.028	0.957	22.141	64995.562	10.512
17098.090	31.273	160.641	642.466	605.044	613.797	0.864	114.267	113.885	12.062	0.944	22.135	64996.471	10.243
17098.291	31.276	160.685	643.351	605.097	613.497	0.831	114.210	113.827	12.148	0.937	22.141	64993.536	9.996
17098.491	31.276	160.658	643.639	605.095	614.173	0.835	114.349	113.976	11.988	0.941	22.146	64993.891	10.128
17098.692	31.302	160.692	643.405	605.155	613.578	0.802	114.336	113.848	12.000	0.938	22.128	64994.386	10.550
17098.892	31.298	160.713	643.285	605.084	613.636	0.900	114.214	113.813	12.087	0.937	22.126	64990.100	9.936
17099.092	31.325	160.748	643.317	605.028	613.754	0.821	114.212	113.795	12.101	0.942	22.139	64989.257	10.040
17099.292	31.322	160.724	643.056	604.936	613.946	0.811	114.206	113.811	12.024	0.941	22.128	64987.720	10.002
17099.493	31.325	160.636	642.530	604.858	613.888	0.849	114.196	113.850	12.063	0.938	22.133	64983.876	9.919
17099.694	31.302	160.720	642.671	604.848	613.792	0.787	114.285	113.855	12.071	0.954	22.145	64984.017	10.051
17099.894	31.313	160.716	642.264	604.774	613.585	0.832	114.240	113.961	11.987	0.944	22.130	64983.559	10.259
17100.094	31.309	160.691	642.457	604.724	613.286	0.852	114.261	113.842	12.117	0.932	22.130	64981.940	10.150
17100.294	31.286	160.735	642.480	604.725	613.797	0.860	114.299	113.920	12.215	0.944	22.138	64983.788	10.172
17100.494	31.328	160.698	642.388	604.718	613.688	0.876	114.335	113.890	11.976	0.935	22.130	64981.400	10.385
17100.696	31.291	160.782	642.596	604.806	613.520	0.925	114.289	113.910	11.978	0.945	22.123	64983.381	10.166
17100.896	31.324	160.793	642.594	604.925	614.017	0.886	114.189	113.850	12.027	0.943	22.150	64981.267	10.221
17101.096	31.323	160.795	642.747	605.150	613.424	0.903	114.249	113.908	12.153	0.938	22.127	64983.536	10.369
17101.296	31.350	160.832	643.088	605.273	613.547	0.844	114.294	113.880	12.040	0.933	22.134	64981.918	10.539
17101.496	31.319	160.755	642.611	605.251	613.608	0.829	114.276	113.858	12.033	0.946	22.145	64982.502	10.588
17101.696	31.322	160.769	642.370	605.286	612.961	0.913	114.150	113.822	12.097	0.950	22.132	64982.782	10.259
17101.896	31.315	160.767	642.174	605.226	613.157	0.777	114.233	113.814	12.082	0.938	22.129	64980.765	10.649
17102.097	31.350	160.829	642.320	605.196	613.199	0.951	114.258	113.901	12.191	0.959	22.137	64983.448	10.413
17102.297	31.370	160.855	641.983	605.080	613.827	0.810	114.242	113.878	12.110	0.947	22.140	64982.546	10.528
17102.497	31.343	160.808	642.723	604.900	613.638	0.902	114.307	113.893	12.161	0.945	22.131	64983.130	10.057
17102.697	31.340	160.749	642.397	604.652	613.483	0.829	114.348	113.953	11.993	0.931	22.140	64983.115	10.555
17102.897	31.348	160.807	641.648	604.638	613.784	0.921	114.310	113.837	11.953	0.942	22.130	64983.086	10.150
17103.097	31.350	160.848	641.593	604.607	613.294	0.860	114.251	113.882	12.059	0.945	22.126	64982.420	10.468
17103.297	31.361	160.859	641.393	604.570	613.397	0.848	114.214	113.762	12.025	0.942	22.141	64981.681	10.758
17103.498	31.396	160.940	641.445	604.529	613.512	0.958	114.181	113.897	12.004	0.945	22.127	64983.448	10.961
17103.700	31.405	160.873	641.275	604.504	613.146	0.829	114.268	113.842	12.027	0.940	22.130	64983.788	10.819
17103.900	31.401	160.931	641.342	604.540	613.109	1.007	114.150	113.752	12.129	0.948	22.145	64980.506	10.857
17104.100	31.440	160.887	641.252	604.677	613.459	0.858	114.298	113.930	12.075	0.947	22.131	64982.398	9.854
17104.300	31.431	160.898	641.374	604.559	613.642	0.894	114.264	113.903	11.992	0.940	22.131	64982.723	10.566
17104.500	31.404	160.871	641.054	604.413	613.250	0.852	114.167	113.783	12.097	0.944	22.138	64979.028	10.418
17104.700	31.447	160.997	641.388	604.452	613.568	0.915	114.254	113.848	12.003	0.933	22.133	64980.321	11.367
17104.900	31.440	160.984	640.982	604.449	613.783	0.845	114.251	113.789	11.946	0.939	22.130	64979.804	10.972
17105.100	31.454	160.981	641.416	604.534	614.078	0.792	114.221	113.817	12.065	0.934	22.146	64979.316	10.588
17105.300	31.430	161.009	641.210	604.545	613.532	0.786	114.212	113.867	12.022	0.933	22.134	64979.922	10.287
17105.500	31.461	161.044	641.397	604.591	613.777	0.824	114.222	113.785	12.014	0.937	22.128	64979.457	10.484
17105.701	31.462	160.969	641.530	604.548	613.334	0.886	114.242	113.909	12.050	0.930	22.136	64981.060	10.429
17105.902	31.445	160.954	641.215	604.554	613.054	0.931	114.363	114.012	12.117	0.958	22.131	64983.706	10.495
17106.102	31.499	160.978	641.607	604.536	613.567	0.891	114.170	113.775	12.051	0.949	22.125	64980.979	10.276
17106.302	31.487	161.050	642.036	604.474	613.366	0.917	114.307	113.807	12.053	0.925	22.150	64982.110	10.660
17106.502	31.527	161.086	642.186	604.453	614.145	0.855	114.187	113.874	12.100	0.939	22.138	64983.795	10.232
17106.702	31.515	161.045	641.883	604.438	613.726	0.901	114.250	113.822	12.073	0.951	22.124	64980.462	9.848
17106.902	31.474	161.054	641.470	604.393	613.153	0.887	114.255	113.900	12.078	0.952	22.144	64978.821	10.199
17107.102	31.502	161.043	641.050	604.352	613.249	0.817	114.273	113.830	12.033	0.923	22.132	64979.257	10.309
17107.303	31.517	161.123	641.127	604.418	613.728	0.892	114.062	113.804	12.118	0.935	22.126	64979.752	10.479
17107.503	31.499	161.054	641.281	604.480	613.372	0.889	114.249	113.797	12.031	0.942	22.135	64979.745	10.270
17107.703	31.466	161.035	642.177	604.452	613.631	0.940	114.167	113.835	12.128	0.943	22.142	64978.296	10.024
17107.903	31.549	161.184	641.829	604.457	613.595	0.899	114.142	113.742	12.073	0.936	22.119	64975.148	10.413
17108.103	31.498	161.084	641.684	604.396	613.417	0.990	114.071	113.661	11.934	0.937	22.139	64975.288	10.687
17108.304	31.529	161.054	642.472	604.526	613.406	0.845	114.216	113.783	12.069	0.936	22.129	64976.057	10.281
17108.505	31.519	161.075	641.981	604.584	613.179	0.843	114.165	113.777	11.996	0.934	22.121	64976.182	9.739
17108.706	31.520	161.137	642.067	604.698	613.202	0.955	114.191	113.814	11.910	0.934	22.138	64977.018	10.632
17108.907	31.519	161.123	642.414	604.726	613.391	0.875	114.047	113.703	12.044	0.933	22.137	64977.520	10.605
17109.108	31.544	161.135	641.982	604.790	613.307	0.962	114.180	113.809	12.017	0.946	22.122	64976.323	10.517
17109.309	31.564	161.145	642.494	604.888	613.372	0.811	114.093	113.689	12.126	0.921	22.138	64977.491	10.347
17109.510	31.570	161.150	642.395	605.040	613.532	0.718	114.177	113.773	12.018	0.950	22.131	64974.800	10.287
17109.710	31.533	161.167	642.442	605.140	613.402	0.923	113.993	113.620	12.031	0.934	22.122	64976.751	10.057
17109.910	31.607	161.166	642.795	605.190	613.317	0.865	114.118	113.759	11.984	0.927	22.133	64972.701	10.583
17110.111	31.567	161.112	642.521	605.197	613.649	0.822	114.169	113.834	12.043	0.947	22.137	64975.628	10.462
17110.311	31.594	161.157	641.685	605.259	613.234	0.873	114.091	113.716	12.073	0.941	22.128	64970.654	10.605
17110.512	31.622	161.256	642.527	605.323	612.881	0.882	114.181	113.764	12.026	0.926	22.138	64970.558	10.572
17110.712	31.620	161.247	642.728	605.483	613.608	0.884	114.109	113.726	12.074	0.939	22.138	64971.445	10.259
17110.912	31.621	161.162	642.921	605.502	613.040	0.897	114.111	113.784	12.200	0.927	22.128	64971.644	10.594
17111.112	31.597	161.130	642.769	605.505	613.019	0.756	114.118	113.715	12.130	0.938	22.127	64970.314	10.314
17111.312	31.571	161.196	642.347	605.545	613.386	0.979	114.116	113.781	12.033	0.933	22.134	64971.171	10.457
17111.512	31.598	161.139	643.581	605.597	613.856	0.940	114.070	113.648	11.982	0.932	22.131	64970.720	10.451
17111.712	31.616	161.173	642.882	605.687	613.879	0.842	114.070	113.640	11.978	0.936	22.134	64970.868	10.413
17111.912	31.624	161.212	642.935	605.800	613.501	0.939	114.149	113.677	11.994	0.931	22.136	64969.242	10.024
17112.112	31.629	161.204	642.768	605.796	613.221	0.847	114.079	113.710	12.080	0.950	22.124	64968.230	10.188
17112.312	31.658	161.204	642.896	605.827	613.558	0.911	114.102	113.695	11.980	0.934	22.133	64969.131	10.150
17112.512	31.682	161.217	643.082	605.848	613.426	0.809	114.199	113.831	12.026	0.942	22.137	64972.265	10.780
17112.712	31.674	161.268	643.164	605.961	613.763	0.920	114.148	113.800	11.971	0.931	22.124	64972.080	10.610
17112.912	31.661	161.248	643.159	606.063	613.353	0.854	114.120	113.758	12.043	0.932	22.136	64971.297	10.501
17113.112	31.678	161.264	643.328	606.157	613.312	0.937	114.065	113.637	12.098	0.933	22.141	64971.341	10.687
17113.312	31.696	161.303	643.840	606.265	613.182	0.769	114.092	113.761	12.082	0.949	22.125	64972.952	10.385
17113.512	31.685	161.318	643.266	606.273	613.023	0.861	114.224	113.878	12.089	0.944	22.120	64973.300	10.682
17113.712	31.708	161.361	643.338	606.296	612.870	0.888	114.135	113.790	12.057	0.935	22.138	64975.480	10.753
17113.912	31.703	161.319	643.537	606.267	613.532	0.860	114.236	113.906	12.087	0.928	22.129	64976.375	10.534
17114.112	31.707	161.307	643.727	606.290	613.383	0.879	114.208	113.856	12.137	0.936	22.133	64977.860	10.594
17114.312	31.682	161.321	643.687	606.273	613.559	0.924	114.131	113.768	12.127	0.928	22.141	64974.305	10.884
17114.512	31.649	161.326	642.941	606.089	613.265	0.830	114.180	113.851	12.097	0.927	22.128	64982.664	10.029
17114.715	31.703	161.328	643.611	605.979	613.096	0.960	114.117	113.701	12.196	0.915	22.129	64982.871	10.523
17114.915	31.700	161.340	642.978	605.918	613.289	0.837	114.049	113.690	11.971	0.923	22.141	64982.790	10.912
17115.115	31.676	161.346	643.264	605.889	613.382	0.885	114.218	113.845	12.089	0.941	22.130	64982.598	10.868
17115.315	31.686	161.294	642.788	605.830	613.169	0.770	114.058	113.706	12.109	0.935	22.133	64980.698	10.835
17115.515	31.690	161.261	643.709	605.680	613.503	0.875	114.085	113.620	12.031	0.930	22.140	64982.428	10.451
17115.715	31.739	161.325	642.365	605.580	613.333	0.875	113.872	113.449	12.185	0.967	22.121	64981.947	11.071
17115.915	31.713	161.318	642.841	605.438	613.455	0.839	114.055	113.679	12.118	0.967	22.129	64982.805	10.813
17116.116	31.751	161.432	642.647	605.348	613.272	0.905	114.144	113.814	12.215	0.966	22.132	64989.035	10.462
17116.316	31.760	161.346	642.043	605.126	613.686	0.925	114.188	113.775	12.106	0.954	22.124	64988.547	11.180
17116.516	31.748	161.386	642.312	604.967	613.319	0.968	114.305	113.851	12.218	0.971	22.128	64988.947	11.202
17116.716	31.745	161.402	642.122	604.807	613.371	1.015	114.250	113.891	12.095	0.967	22.143	65067.254	10.923
17116.917	31.775	161.462	642.798	604.650	613.641	0.856	114.556	114.067	12.197	0.969	22.133	65066.449	10.495
17117.117	31.785	161.423	642.051	604.470	612.860	0.953	114.212	113.820	12.231	0.955	22.127	65069.545	10.852
17117.317	31.783	161.467	641.897	604.226	613.397	0.931	114.394	113.972	12.141	0.948	22.138	65073.492	11.603
17117.517	31.765	161.404	642.002	604.034	613.352	0.927	114.397	113.860	12.096	0.964	22.123	65071.644	11.252
17117.718	31.749	161.394	642.023	603.962	613.299	0.804	114.468	114.010	12.151	0.967	22.123	65075.769	11.142
17117.918	31.780	161.414	642.056	603.860	613.019	0.916	114.284	113.903	12.103	0.945	22.144	65077.343	10.698
17118.119	31.756	161.454	641.657	603.809	612.992	0.938	114.411	114.007	12.207	0.957	22.129	65080.129	10.462
17118.319	31.802	161.492	642.525	603.868	613.194	0.809	114.358	113.948	12.028	0.948	22.125	65087.372	11.148
17118.519	31.763	161.514	641.660	603.875	612.901	0.984	114.316	113.918	12.188	0.959	22.135	65088.104	10.479
17118.719	31.834	161.508	641.399	603.906	613.265	0.886	114.402	113.998	12.234	0.955	22.130	65086.922	10.873
17118.919	31.762	161.481	641.273	603.738	612.821	0.844	114.386	114.021	12.123	0.937	22.120	65087.993	11.109
17119.119	31.792	161.531	642.058	603.598	613.108	0.808	114.342	113.897	12.221	0.955	22.134	65089.368	10.912
17119.319	31.830	161.560	642.264	603.456	612.714	0.934	114.263	113.877	12.150	0.951	22.130	65085.185	10.884
17119.519	31.809	161.528	641.633	603.403	612.523	0.999	114.261	113.922	12.254	0.956	22.127	65086.013	10.676
17119.720	31.836	161.539	641.802	603.415	612.659	0.950	114.340	113.994	12.238	0.956	22.134	65083.803	11.016
17119.922	31.840	161.584	641.988	603.515	613.173	0.857	114.385	113.940	12.213	0.961	22.139	65081.681	10.550
17120.122	31.822	161.575	641.709	603.481	612.518	0.907	114.290	113.874	12.221	0.952	22.121	65081.970	10.928
17120.322	31.807	161.545	641.068	603.492	612.313	0.788	114.331	113.898	12.165	0.952	22.131	65082.487	10.468
17120.522	31.817	161.526	641.199	603.391	612.946	0.833	114.398	113.986	12.207	0.966	22.134	65083.174	10.912
17120.722	31.843	161.576	641.098	603.254	612.800	0.949	114.332	113.952	12.168	0.948	22.131	65082.450	11.290
17120.925	31.838	161.624	641.009	603.277	612.720	0.830	114.425	114.011	12.180	0.960	22.137	65083.167	10.939
