MiniLab	10-Dec-12	5:23:55 AM	

Time (sec)	T1 (C)	T2 (C)	T3 (C)	T4 (C)	T5 (C)	P1 (kPa)	P2 (kPa)	P3 (kPa)	P4 (kPa)	P5 (kPa)	Fuel Flow  (L/hr)	N1 (RPM)	Thrust (N)
16713.935	25.684	131.847	593.510	579.224	598.826	0.658	90.132	89.551	9.717	0.803	18.932	59847.278	14.141
16714.137	25.681	131.832	592.679	579.126	599.191	0.656	90.088	89.520	9.680	0.801	18.914	59847.322	14.783
16714.337	25.696	131.892	593.308	579.163	599.432	0.645	90.029	89.514	9.618	0.798	18.909	59843.863	14.448
16714.537	25.691	131.835	593.238	579.162	599.493	0.650	90.082	89.473	9.747	0.802	18.926	59843.671	14.212
16714.737	25.688	131.892	593.066	579.157	598.969	0.646	90.111	89.512	9.668	0.809	18.914	59843.050	14.607
16714.938	25.691	131.846	593.733	579.172	599.183	0.646	90.096	89.538	9.818	0.808	18.920	59840.256	14.832
16715.138	25.660	131.913	593.490	579.144	598.806	0.652	90.147	89.621	9.681	0.800	18.932	59839.325	14.454
16715.339	25.673	131.950	593.453	579.190	599.402	0.646	90.113	89.518	9.702	0.798	18.920	59841.579	14.607
16715.539	25.667	131.994	592.891	579.094	599.405	0.650	90.107	89.532	9.686	0.799	18.924	59841.298	14.509
16715.739	25.673	131.906	593.950	579.091	599.656	0.652	90.094	89.583	9.697	0.811	18.920	59841.010	14.772
16715.940	25.689	131.985	593.620	579.144	599.328	0.657	90.047	89.511	9.778	0.811	18.916	59841.446	14.607
16716.141	25.679	132.023	594.110	579.074	599.358	0.654	90.161	89.620	9.613	0.809	18.915	59840.604	14.382
16716.341	25.689	132.072	593.470	579.100	599.157	0.656	90.068	89.523	9.688	0.801	18.913	59843.161	14.498
16716.541	25.737	132.107	593.574	579.123	599.252	0.654	90.097	89.524	9.752	0.824	18.907	59844.188	14.339
16716.741	25.697	132.087	593.624	579.130	599.069	0.650	90.170	89.534	9.713	0.786	18.926	59841.542	14.552
16716.941	25.724	132.102	593.523	579.183	599.500	0.653	90.067	89.590	9.632	0.811	18.926	59842.984	14.311
16717.141	25.736	132.099	594.411	579.144	599.015	0.646	90.155	89.626	9.597	0.820	18.911	59843.264	14.975
16717.350	25.736	132.123	594.364	579.177	599.317	0.650	90.147	89.637	9.755	0.807	18.918	59841.653	14.925
16717.550	25.747	132.108	594.385	579.216	599.721	0.654	90.029	89.600	9.702	0.802	18.919	59845.275	14.640
16717.753	25.730	132.195	594.368	579.280	598.999	0.652	90.249	89.697	9.752	0.796	18.910	59846.213	14.892
16717.953	25.744	132.170	594.675	579.269	599.545	0.651	90.136	89.525	9.657	0.813	18.927	59845.644	15.353
16718.153	25.775	132.208	593.938	579.309	599.668	0.654	90.130	89.610	9.741	0.806	18.920	59845.689	15.528
16718.354	25.738	132.164	594.398	579.241	599.300	0.655	90.138	89.583	9.622	0.805	18.912	59846.435	14.991
16718.554	25.776	132.214	594.308	579.260	599.631	0.652	90.213	89.607	9.687	0.811	18.925	59846.184	15.227
16718.755	25.801	132.201	593.793	579.326	599.193	0.651	90.185	89.567	9.757	0.811	18.914	59845.881	14.613
16718.956	25.795	132.285	594.538	579.352	599.275	0.655	90.048	89.498	9.684	0.803	18.915	59844.417	14.465
16719.156	25.771	132.238	594.927	579.472	599.858	0.652	90.097	89.611	9.663	0.791	18.920	59845.075	15.057
16719.356	25.776	132.255	594.235	579.566	599.883	0.659	90.167	89.652	9.745	0.806	18.918	59843.907	15.205
16719.557	25.754	132.256	594.102	579.640	599.931	0.656	90.123	89.606	9.727	0.798	18.915	59844.174	15.260
16719.757	25.779	132.255	593.960	579.697	599.327	0.652	90.178	89.611	9.621	0.813	18.928	59844.233	14.914
16719.957	25.773	132.320	594.757	579.807	599.431	0.655	90.149	89.594	9.691	0.802	18.907	59844.913	14.520
16720.157	25.762	132.304	594.367	579.882	599.271	0.658	90.134	89.588	9.771	0.815	18.913	59844.587	14.602
16720.357	25.809	132.376	594.839	579.849	599.300	0.656	90.207	89.606	9.669	0.802	18.921	59841.454	15.260
16720.557	25.828	132.344	594.482	579.989	600.096	0.656	90.091	89.531	9.709	0.806	18.904	59843.205	14.925
16720.758	25.835	132.404	594.448	580.008	599.519	0.661	90.168	89.643	9.658	0.822	18.915	59844.018	14.997
16720.959	25.851	132.405	594.488	580.103	599.632	0.659	90.141	89.627	9.705	0.816	18.926	59843.516	15.649
16721.160	25.836	132.404	594.827	580.144	599.957	0.648	90.141	89.642	9.758	0.812	18.922	59839.199	14.717
16721.360	25.808	132.377	594.487	580.132	599.538	0.663	90.164	89.662	9.728	0.822	18.924	59840.271	14.728
16721.560	25.824	132.382	594.396	580.056	599.838	0.654	90.200	89.636	9.733	0.803	18.921	59841.173	15.315
16721.760	25.835	132.435	594.585	580.072	599.822	0.635	90.121	89.520	9.622	0.788	18.907	59841.128	14.805
16721.960	25.896	132.484	594.766	580.061	599.189	0.644	90.145	89.589	9.671	0.791	18.915	59839.288	14.673
16722.160	25.868	132.455	594.422	580.025	599.472	0.661	90.114	89.611	9.611	0.807	18.917	59839.244	14.624
16722.360	25.861	132.514	595.124	580.018	599.545	0.641	90.133	89.580	9.823	0.816	18.914	59839.650	15.325
16722.560	25.858	132.471	594.807	579.982	600.457	0.648	90.155	89.593	9.734	0.808	18.933	59840.448	14.668
16722.760	25.887	132.462	595.133	579.855	599.897	0.647	90.144	89.561	9.660	0.815	18.911	59839.074	15.062
16722.960	25.880	132.398	594.562	579.669	599.722	0.651	90.204	89.619	9.690	0.798	18.909	59837.529	14.881
16723.160	25.837	132.446	594.602	579.503	600.403	0.652	90.189	89.610	9.712	0.793	18.924	59838.460	14.700
16723.361	25.852	132.464	594.022	579.418	599.982	0.655	90.198	89.631	9.679	0.827	18.911	59837.270	14.607
16723.560	25.857	132.516	594.424	579.371	599.784	0.654	90.209	89.634	9.766	0.802	18.917	59837.396	15.227
16723.760	25.865	132.530	593.882	579.315	600.080	0.653	90.214	89.639	9.657	0.808	18.926	59838.926	14.810
16723.960	25.867	132.535	593.624	579.369	600.638	0.659	90.123	89.585	9.736	0.805	18.905	59837.714	14.794
16724.160	25.855	132.508	594.125	579.379	599.785	0.659	90.148	89.635	9.669	0.793	18.914	59836.524	14.881
16724.361	25.824	132.484	593.794	579.532	599.948	0.660	90.133	89.590	9.658	0.801	18.924	59835.349	14.821
16724.564	25.815	132.535	593.929	579.765	599.920	0.658	90.124	89.588	9.665	0.810	18.907	59835.460	14.728
16724.764	25.831	132.536	594.481	579.833	600.419	0.650	90.190	89.555	9.663	0.798	18.926	59834.240	14.920
16724.964	25.803	132.485	595.123	580.020	600.356	0.651	90.116	89.603	9.746	0.804	18.924	59835.674	14.432
16725.165	25.814	132.592	594.513	580.123	599.634	0.649	90.217	89.626	9.674	0.795	18.911	59835.001	14.689
16725.365	25.799	132.603	595.017	580.177	600.034	0.645	90.189	89.640	9.753	0.818	18.923	59835.023	14.848
16725.566	25.785	132.458	595.091	580.203	599.599	0.659	90.097	89.572	9.680	0.808	18.922	59836.021	14.980
16725.766	25.802	132.595	595.251	580.307	600.014	0.646	90.195	89.674	9.686	0.798	18.904	59836.287	14.382
16725.966	25.843	132.625	595.327	580.442	600.348	0.647	90.213	89.657	9.685	0.814	18.921	59836.605	14.777
16726.166	25.803	132.653	594.731	580.439	600.306	0.650	90.189	89.626	9.817	0.814	18.913	59835.637	15.112
16726.366	25.820	132.664	595.253	580.443	600.101	0.661	90.149	89.613	9.770	0.806	18.912	59835.467	15.040
16726.566	25.775	132.616	595.843	580.466	600.684	0.660	90.139	89.568	9.729	0.812	18.920	59835.068	14.465
16726.766	25.750	132.590	596.137	580.406	600.153	0.651	90.158	89.621	9.727	0.797	18.914	59835.600	14.964
16726.966	25.727	132.550	595.321	580.338	599.823	0.645	90.138	89.596	9.666	0.795	18.906	59832.584	14.443
16727.166	25.693	132.600	595.323	580.303	599.960	0.647	90.160	89.524	9.752	0.787	18.920	59834.343	14.761
16727.366	25.750	132.592	595.399	580.244	599.994	0.656	90.197	89.605	9.657	0.810	18.923	59830.434	15.024
16727.567	25.712	132.580	595.425	580.267	600.050	0.652	90.106	89.572	9.725	0.792	18.917	59829.384	14.761
16727.767	25.717	132.633	595.130	580.264	599.979	0.668	90.109	89.565	9.670	0.810	18.928	59830.530	14.640
16727.967	25.721	132.615	595.355	580.187	600.157	0.656	90.186	89.658	9.724	0.808	18.911	59824.676	14.942
16728.167	25.736	132.628	595.663	580.131	600.086	0.658	90.191	89.697	9.708	0.794	18.917	59823.834	14.898
16728.367	25.743	132.630	595.771	580.216	600.401	0.643	90.185	89.662	9.680	0.806	18.931	59822.466	14.563
16728.576	25.728	132.670	595.451	580.340	600.523	0.648	90.232	89.699	9.678	0.798	18.915	59820.781	15.018
16728.776	25.687	132.606	595.482	580.462	600.431	0.649	90.171	89.629	9.726	0.798	18.909	59821.535	15.002
16728.976	25.696	132.636	595.215	580.475	600.511	0.654	90.184	89.605	9.767	0.803	18.926	59822.370	14.711
16729.176	25.685	132.663	595.906	580.521	600.180	0.662	90.138	89.521	9.675	0.813	18.913	59823.996	14.476
16729.386	25.685	132.639	595.389	580.491	600.529	0.658	90.174	89.633	9.649	0.815	18.917	59822.880	14.454
16729.586	25.696	132.662	595.788	580.597	600.129	0.659	90.232	89.710	9.631	0.815	18.925	59820.086	14.920
16729.786	25.704	132.604	595.570	580.699	600.460	0.665	90.250	89.661	9.764	0.808	18.903	59820.537	15.375
16729.986	25.684	132.717	596.006	580.611	600.101	0.660	90.265	89.739	9.761	0.804	18.923	59821.897	15.007
16730.186	25.681	132.713	595.650	580.501	600.061	0.657	90.205	89.636	9.736	0.803	18.921	59822.961	15.128
16730.386	25.678	132.713	595.834	580.307	600.101	0.645	90.241	89.652	9.722	0.814	18.909	59823.486	14.711
16730.586	25.676	132.746	595.534	580.277	600.217	0.670	90.265	89.715	9.668	0.795	18.927	59823.412	14.733
16730.786	25.678	132.760	595.407	580.392	599.897	0.663	90.260	89.721	9.677	0.790	18.926	59820.899	15.068
16730.987	25.655	132.713	595.399	580.398	600.890	0.659	90.234	89.616	9.743	0.793	18.907	59821.158	14.892
16731.187	25.681	132.703	594.699	580.398	600.076	0.676	90.221	89.619	9.617	0.795	18.927	59822.318	14.552
16731.387	25.664	132.770	594.350	580.478	600.069	0.649	90.223	89.673	9.729	0.804	18.916	59822.318	14.602
16731.587	25.672	132.750	594.243	580.435	600.350	0.655	90.231	89.638	9.789	0.803	18.914	59821.513	14.700
16731.788	25.661	132.758	594.075	580.376	600.265	0.660	90.207	89.682	9.687	0.818	18.929	59823.094	14.498
16731.989	25.650	132.797	594.798	580.360	600.508	0.655	90.109	89.534	9.602	0.793	18.921	59821.321	14.903
16732.189	25.661	132.799	593.985	580.353	599.998	0.661	90.137	89.597	9.726	0.819	18.916	59815.607	14.788
16732.390	25.650	132.813	594.265	580.353	600.679	0.659	90.233	89.706	9.707	0.806	18.927	59816.095	14.794
16732.591	25.650	132.816	593.933	580.384	600.632	0.659	90.189	89.606	9.756	0.808	18.911	59812.178	14.569
16732.791	25.655	132.780	593.838	580.312	600.223	0.656	90.236	89.651	9.700	0.810	18.911	59813.080	14.541
16732.991	25.678	132.800	594.060	580.285	599.674	0.654	90.162	89.673	9.694	0.796	18.922	59813.553	14.141
16733.191	25.678	132.805	594.472	580.290	600.181	0.659	90.299	89.675	9.838	0.812	18.913	59806.834	14.843
16733.391	25.670	132.802	594.239	580.290	600.084	0.656	90.207	89.610	9.790	0.817	18.916	59808.202	14.997
16733.591	25.672	132.813	593.872	580.198	600.895	0.660	90.210	89.697	9.703	0.800	18.919	59808.179	15.073
16733.791	25.651	132.879	594.212	580.153	600.495	0.652	90.213	89.629	9.777	0.806	18.905	59809.998	15.029
16733.991	25.661	132.845	594.479	579.996	600.390	0.647	90.083	89.543	9.722	0.808	18.915	59809.399	14.668
16734.191	25.612	132.772	594.120	579.838	600.423	0.672	90.202	89.636	9.725	0.811	18.918	59809.192	14.733
16734.391	25.633	132.867	594.200	579.878	600.259	0.652	90.224	89.669	9.720	0.804	18.902	59811.254	14.481
16734.591	25.623	132.864	594.169	579.942	600.468	0.655	90.311	89.716	9.770	0.809	18.931	59810.367	15.227
16734.791	25.617	132.774	594.585	580.030	600.320	0.662	90.195	89.663	9.756	0.793	18.909	59809.236	14.848
16734.991	25.642	132.925	594.568	580.147	600.524	0.660	90.113	89.606	9.732	0.809	18.905	59810.914	15.040
16735.191	25.643	132.904	594.111	580.107	600.974	0.654	90.262	89.733	9.800	0.801	18.920	59813.471	15.123
16735.391	25.650	132.857	594.130	580.110	600.612	0.646	90.180	89.637	9.746	0.807	18.911	59812.001	15.156
16735.591	25.628	132.941	594.726	580.144	600.508	0.639	90.256	89.683	9.696	0.800	18.897	59812.614	14.991
16735.791	25.635	132.882	594.397	580.240	600.614	0.645	90.265	89.701	9.694	0.803	18.930	59816.265	14.755
16735.991	25.655	132.879	594.422	580.284	600.598	0.653	90.141	89.674	9.709	0.815	18.916	59815.644	14.788
16736.191	25.653	132.979	594.414	580.315	601.205	0.646	90.090	89.618	9.737	0.797	18.905	59816.258	15.013
16736.391	25.665	132.921	595.027	580.310	600.849	0.641	90.062	89.499	9.667	0.802	18.921	59813.664	14.975
16736.592	25.671	132.936	594.411	580.355	600.411	0.639	90.093	89.493	9.730	0.801	18.909	59812.984	14.953
16736.792	25.658	132.963	594.968	580.378	600.758	0.652	90.041	89.461	9.786	0.799	18.908	59808.645	14.969
16736.992	25.667	132.961	595.277	580.401	600.739	0.652	90.029	89.481	9.835	0.796	18.918	59809.103	14.536
16737.192	25.725	132.919	594.720	580.418	600.316	0.652	90.041	89.445	9.647	0.805	18.913	59808.689	15.007
16737.392	25.731	133.036	595.765	580.570	600.434	0.645	90.015	89.534	9.827	0.800	18.919	59805.836	14.777
16737.592	25.744	133.054	596.195	580.664	601.169	0.646	90.127	89.540	9.781	0.798	18.924	59805.533	14.827
16737.792	25.772	133.025	596.490	580.730	600.450	0.667	90.057	89.600	9.680	0.792	18.912	59803.139	15.051
16737.992	25.805	133.051	596.208	580.804	601.044	0.650	90.029	89.461	9.674	0.796	18.911	59801.882	15.035
16738.192	25.829	133.015	596.778	581.016	600.787	0.650	90.004	89.508	9.666	0.805	18.924	59803.220	14.865
16738.392	25.827	133.084	596.408	581.236	600.869	0.663	90.076	89.514	9.658	0.802	18.906	59803.664	15.474
16738.592	25.840	133.011	597.293	581.192	600.772	0.660	90.129	89.570	9.781	0.816	18.918	59804.624	15.424
16738.792	25.851	133.050	596.699	581.249	601.181	0.635	90.072	89.530	9.755	0.818	18.922	59802.984	14.848
16738.992	25.840	133.066	596.813	581.179	600.561	0.637	90.116	89.622	9.748	0.814	18.908	59807.034	15.013
16739.192	25.857	133.075	597.302	581.002	601.042	0.649	90.104	89.588	9.801	0.798	18.922	59806.479	15.325
16739.392	25.873	133.023	595.718	580.930	601.256	0.638	90.123	89.619	9.747	0.811	18.910	59811.609	15.293
16739.592	25.875	133.089	596.186	580.955	601.376	0.661	90.095	89.512	9.720	0.797	18.914	59810.293	15.539
16739.792	25.893	133.035	596.699	580.971	601.356	0.646	90.134	89.568	9.778	0.810	18.923	59810.655	15.188
16739.992	25.894	133.182	596.281	580.994	601.143	0.652	90.099	89.592	9.662	0.800	18.919	59811.535	14.761
16740.193	25.930	133.149	596.487	581.018	601.020	0.652	90.161	89.572	9.730	0.799	18.913	59811.483	15.188
16740.394	25.912	133.113	596.669	580.978	600.701	0.649	90.149	89.547	9.615	0.798	18.926	59812.281	14.958
16740.595	25.907	133.125	596.120	581.079	601.472	0.661	90.161	89.566	9.761	0.817	18.915	59810.759	14.942
16740.796	25.933	133.153	596.335	581.174	601.685	0.657	90.127	89.553	9.676	0.807	18.907	59810.641	15.166
16740.996	25.922	133.096	595.663	581.129	601.144	0.680	90.125	89.551	9.738	0.792	18.930	59807.810	15.320
16741.196	25.978	133.162	595.845	581.077	601.034	0.652	90.065	89.516	9.741	0.798	18.910	59810.101	15.166
16741.397	25.974	133.167	595.967	581.157	601.256	0.652	90.048	89.496	9.699	0.814	18.908	59809.547	15.134
16741.597	26.003	133.172	595.792	581.114	601.303	0.647	90.089	89.590	9.701	0.805	18.929	59805.726	15.364
16741.799	25.985	133.267	595.682	581.131	601.476	0.672	90.016	89.463	9.723	0.820	18.907	59807.115	15.057
16742.000	25.994	133.250	595.993	581.028	601.511	0.666	89.989	89.487	9.671	0.809	18.909	59805.038	15.156
16742.201	25.995	133.185	595.827	580.923	601.330	0.673	89.993	89.446	9.697	0.809	18.917	59803.856	15.194
16742.401	25.981	133.217	595.198	580.893	601.154	0.656	90.069	89.554	9.682	0.812	18.907	59803.102	14.832
16742.601	25.978	133.233	595.488	580.857	601.041	0.657	90.086	89.525	9.685	0.802	18.916	59797.115	15.134
16742.801	25.982	133.218	595.738	580.811	601.155	0.662	90.161	89.609	9.596	0.790	18.920	59798.157	14.744
16743.001	25.985	133.270	596.187	580.908	600.788	0.674	90.140	89.553	9.723	0.799	18.911	59797.780	15.051
16743.201	26.022	133.288	595.502	580.931	601.502	0.670	90.050	89.487	9.737	0.810	18.912	59796.406	15.002
16743.401	26.001	133.228	596.036	580.944	601.186	0.655	90.122	89.561	9.739	0.806	18.919	59797.100	15.112
16743.601	25.984	133.218	595.357	580.946	601.082	0.650	89.973	89.490	9.750	0.801	18.912	59798.298	14.695
16743.801	25.969	133.212	595.177	580.921	601.045	0.668	90.033	89.428	9.686	0.805	18.922	59796.672	15.183
16744.001	26.010	133.277	595.163	580.933	601.538	0.655	90.115	89.552	9.716	0.795	18.912	59797.817	15.166
16744.201	26.034	133.264	595.663	580.962	601.478	0.647	90.117	89.648	9.688	0.807	18.906	59797.411	15.512
16744.401	26.024	133.227	595.588	581.093	601.213	0.658	90.055	89.513	9.660	0.806	18.918	59797.219	15.271
16744.601	26.054	133.261	595.260	581.125	601.274	0.651	90.093	89.509	9.728	0.809	18.903	59796.583	15.035
16744.801	26.006	133.277	596.059	581.178	601.456	0.660	89.946	89.471	9.764	0.803	18.906	59797.352	14.805
16745.001	26.039	133.302	595.970	581.228	601.438	0.646	89.981	89.496	9.736	0.811	18.922	59797.263	14.887
16745.201	26.078	133.339	595.908	581.319	601.331	0.656	90.093	89.518	9.706	0.805	18.915	59795.038	14.816
16745.408	26.098	133.346	595.734	581.336	601.137	0.637	90.110	89.518	9.717	0.801	18.911	59792.636	15.112
16745.608	26.135	133.363	596.397	581.451	601.241	0.645	89.983	89.350	9.686	0.802	18.918	59794.536	14.777
16745.809	26.148	133.372	596.030	581.551	601.558	0.664	89.870	89.340	9.715	0.797	18.906	59795.193	14.920
16746.009	26.125	133.404	596.361	581.558	600.949	0.659	89.959	89.383	9.780	0.812	18.909	59795.541	14.794
16746.210	26.137	133.304	595.713	581.652	601.403	0.657	90.044	89.468	9.678	0.799	18.920	59792.429	15.046
16746.411	26.140	133.405	596.587	581.634	601.398	0.649	89.919	89.389	9.718	0.807	18.912	59792.370	14.366
16746.611	26.142	133.352	596.532	581.623	601.671	0.660	89.982	89.416	9.706	0.811	18.910	59792.902	14.843
16746.811	26.150	133.400	596.831	581.716	601.450	0.659	89.937	89.419	9.702	0.807	18.921	59787.640	15.090
16747.011	26.171	133.404	596.397	581.875	601.461	0.651	89.944	89.337	9.666	0.818	18.899	59789.768	14.607
16747.211	26.150	133.410	597.278	582.023	601.970	0.637	89.925	89.455	9.754	0.790	18.915	59788.904	15.150
16747.411	26.188	133.317	596.882	582.209	601.321	0.653	90.023	89.491	9.634	0.795	18.917	59787.721	14.838
16747.612	26.187	133.313	596.556	582.349	601.502	0.664	90.000	89.502	9.704	0.800	18.900	59788.342	14.503
16747.812	26.165	133.415	596.332	582.404	601.334	0.668	89.985	89.488	9.669	0.802	18.922	59791.313	14.476
16748.012	26.221	133.415	596.899	582.584	602.108	0.666	89.871	89.345	9.624	0.799	18.921	59789.384	14.744
16748.212	26.213	133.447	597.602	582.716	600.762	0.668	90.031	89.503	9.664	0.807	18.910	59791.217	14.525
16748.412	26.206	133.425	597.566	582.657	601.637	0.675	90.051	89.518	9.725	0.805	18.920	59796.110	14.958
16748.612	26.193	133.427	597.027	582.565	601.338	0.666	90.002	89.497	9.689	0.801	18.917	59796.879	14.722
16748.812	26.255	133.463	597.350	582.488	601.325	0.653	90.135	89.640	9.719	0.805	18.906	59800.042	14.788
16749.012	26.259	133.459	596.999	582.381	601.792	0.654	90.138	89.542	9.718	0.797	18.918	59797.662	14.766
16749.212	26.252	133.477	596.429	582.285	601.268	0.655	90.142	89.533	9.706	0.803	18.909	59799.465	14.964
16749.412	26.239	133.473	596.566	582.288	601.165	0.650	90.063	89.576	9.753	0.799	18.908	59802.924	15.040
16749.612	26.257	133.500	596.877	582.232	601.300	0.656	90.071	89.598	9.758	0.803	18.920	59801.867	14.733
16749.812	26.290	133.541	597.044	582.269	601.331	0.650	90.079	89.535	9.758	0.801	18.912	59800.315	14.700
16750.012	26.251	133.507	596.986	582.177	601.151	0.651	90.103	89.531	9.730	0.818	18.910	59799.635	14.668
16750.212	26.244	133.541	597.609	582.113	601.579	0.648	90.003	89.497	9.693	0.805	18.922	59798.564	14.739
16750.412	26.274	133.532	597.428	582.134	601.454	0.669	90.074	89.535	9.750	0.823	18.913	59799.044	15.287
16750.612	26.269	133.516	597.861	582.189	600.976	0.652	90.062	89.508	9.763	0.808	18.905	59800.966	14.903
16750.812	26.255	133.531	597.127	582.211	601.222	0.647	90.080	89.531	9.870	0.809	18.922	59801.579	15.408
16751.012	26.250	133.481	597.367	582.203	601.346	0.648	90.084	89.544	9.713	0.803	18.917	59794.351	15.380
16751.212	26.262	133.522	597.847	582.365	601.246	0.680	89.976	89.451	9.688	0.795	18.911	59794.506	15.029
16751.412	26.282	133.546	597.364	582.440	601.143	0.659	89.872	89.326	9.680	0.802	18.921	59790.123	14.991
16751.612	26.249	133.530	597.796	582.500	600.948	0.651	90.033	89.491	9.727	0.801	18.903	59789.820	15.183
16751.812	26.260	133.614	597.424	582.512	601.426	0.641	90.059	89.494	9.792	0.800	18.917	59788.320	15.287
16752.012	26.254	133.515	597.269	582.505	601.267	0.651	89.995	89.481	9.789	0.806	18.922	59783.700	15.007
16752.212	26.255	133.554	597.720	582.479	601.961	0.666	89.997	89.441	9.609	0.798	18.904	59783.634	14.465
16752.412	26.262	133.480	597.588	582.541	601.238	0.660	89.950	89.416	9.687	0.800	18.911	59781.734	14.876
16752.612	26.264	133.521	597.594	582.457	601.570	0.647	90.026	89.414	9.657	0.797	18.919	59781.927	14.975
16752.812	26.264	133.582	597.378	582.329	602.136	0.643	90.008	89.467	9.679	0.809	18.908	59781.261	15.419
16753.012	26.262	133.595	597.591	582.276	601.553	0.664	89.972	89.413	9.765	0.816	18.925	59777.329	15.145
16753.212	26.294	133.615	597.768	582.261	601.341	0.652	89.952	89.382	9.616	0.812	18.904	59779.835	14.980
16753.412	26.290	133.629	597.124	582.308	601.115	0.658	90.017	89.461	9.741	0.801	18.904	59778.586	14.580
16753.612	26.275	133.549	597.117	582.328	601.684	0.656	89.983	89.405	9.626	0.803	18.917	59776.960	15.227
16753.812	26.285	133.608	597.603	582.372	601.699	0.655	89.920	89.372	9.775	0.807	18.912	59777.736	14.909
16754.012	26.300	133.608	597.650	582.399	601.596	0.650	89.945	89.337	9.650	0.799	18.911	59780.330	15.139
16754.212	26.282	133.600	597.263	582.333	601.539	0.648	89.975	89.434	9.658	0.795	18.927	59779.465	15.188
16754.412	26.311	133.627	597.052	582.375	601.468	0.649	89.948	89.427	9.663	0.803	18.916	59780.478	14.755
16754.612	26.306	133.656	596.869	582.395	601.562	0.658	89.993	89.434	9.717	0.796	18.904	59783.457	14.898
16754.812	26.353	133.687	597.028	582.483	601.957	0.657	90.062	89.545	9.701	0.798	18.921	59783.227	14.498
16755.012	26.352	133.604	596.651	582.551	601.710	0.657	90.178	89.636	9.734	0.803	18.904	59783.146	15.057
16755.212	26.334	133.725	596.667	582.541	601.847	0.658	90.085	89.582	9.681	0.811	18.913	59784.262	15.079
16755.412	26.360	133.685	596.843	582.521	601.631	0.659	90.050	89.519	9.721	0.817	18.927	59783.678	15.221
16755.612	26.363	133.707	597.180	582.427	601.642	0.668	90.121	89.499	9.643	0.796	18.902	59783.944	14.936
