MiniLab	20-Oct-15	3:17:28 PM	

Time (sec)	T1 (C)	T2 (C)	T3 (C)	T4 (C)	T5 (C)	P1 (kPa)	P2 (kPa)	P3 (kPa)	P4 (kPa)	P5 (kPa)	Fuel Flow  (L/hr)	N1 (RPM)	Thrust (N)
17412.201	31.733	82.237	610.228	670.521	465.356	0.221	33.508	32.520	3.785	2.649	12.007	40120.161	18.834
17412.401	31.658	82.233	609.669	670.524	465.624	0.228	33.492	32.522	3.825	2.624	11.974	40124.625	18.083
17412.601	31.677	82.248	610.088	670.497	465.607	0.229	33.403	32.402	3.785	2.674	11.988	40122.009	18.407
17412.801	31.767	82.373	610.261	670.481	465.305	0.229	33.358	32.327	3.789	2.648	11.994	40122.733	18.461
17413.001	31.778	82.357	609.777	670.379	465.995	0.234	33.366	32.384	3.801	2.635	12.000	40127.870	18.220
17413.201	31.652	82.280	609.851	670.327	465.802	0.233	33.406	32.338	3.809	2.649	11.994	40127.818	18.955
17413.401	31.758	82.363	610.264	670.427	465.976	0.234	33.340	32.345	3.780	2.623	11.950	40123.613	18.862
17413.601	31.724	82.419	610.327	670.465	465.911	0.233	33.375	32.399	3.808	2.623	11.992	40122.874	18.675
17413.801	31.699	82.364	609.683	670.282	465.624	0.241	33.474	32.398	3.793	2.638	12.004	40119.407	18.955
17414.001	31.743	82.423	609.813	670.339	466.201	0.238	33.366	32.414	3.770	2.650	11.993	40116.370	18.281
17414.201	31.756	82.532	610.234	670.477	466.002	0.230	33.278	32.277	3.730	2.638	11.990	40114.781	18.374
17414.401	31.596	82.314	609.656	670.313	465.916	0.232	33.446	32.440	3.773	2.620	11.991	40115.875	18.050
17414.601	31.719	82.496	609.738	670.367	465.910	0.229	33.326	32.300	3.763	2.648	11.986	40113.524	17.793
17414.801	31.678	82.468	609.592	670.246	466.166	0.226	33.439	32.479	3.790	2.611	12.005	40111.218	18.938
17415.001	31.692	82.395	609.626	670.273	465.877	0.236	33.527	32.484	3.806	2.626	11.990	40112.852	18.785
17415.201	31.696	82.475	609.669	670.350	466.174	0.234	33.387	32.374	3.748	2.635	11.989	40115.365	18.050
17415.401	31.727	82.464	610.316	670.235	466.405	0.236	33.394	32.359	3.801	2.652	11.989	40112.992	18.922
17415.601	31.673	82.442	608.661	670.169	465.966	0.238	33.396	32.350	3.765	2.628	11.979	40119.444	18.456
17415.801	31.741	82.509	609.337	670.189	466.188	0.218	33.447	32.454	3.779	2.633	11.983	40118.691	18.489
17416.001	31.667	82.491	608.655	670.072	466.381	0.227	33.532	32.511	3.826	2.654	11.969	40118.151	18.335
17416.201	31.706	82.525	609.205	670.108	466.060	0.233	33.460	32.444	3.795	2.641	11.965	40116.436	18.790
17416.401	31.709	82.553	608.848	670.037	466.839	0.225	33.470	32.441	3.813	2.660	11.980	40120.597	18.555
17416.601	31.789	82.591	608.539	669.799	466.478	0.223	33.521	32.489	3.767	2.629	12.018	40124.012	18.226
17416.801	31.720	82.564	609.165	669.692	466.335	0.219	33.455	32.478	3.778	2.638	12.009	40126.436	18.352
17417.001	31.686	82.686	608.689	669.607	466.489	0.231	33.352	32.318	3.765	2.644	11.994	40129.651	17.814
17417.201	31.639	82.541	608.441	669.392	466.856	0.239	33.365	32.333	3.771	2.622	11.972	40130.886	17.502
17417.401	31.634	82.645	608.080	669.123	466.341	0.231	33.355	32.322	3.773	2.647	11.972	40126.518	18.440
17417.601	31.594	82.598	608.159	668.930	466.597	0.236	33.416	32.379	3.794	2.629	11.999	40128.727	18.023
17417.801	31.675	82.740	607.873	668.940	466.924	0.237	33.471	32.422	3.791	2.638	11.969	40126.414	17.798
17418.003	31.679	82.633	608.275	668.891	466.424	0.235	33.343	32.329	3.816	2.658	11.977	40126.340	18.132
17418.203	31.598	82.665	608.082	668.939	467.112	0.237	33.419	32.412	3.797	2.676	11.981	40124.773	18.237
17418.403	31.607	82.701	608.250	669.126	467.078	0.240	33.392	32.409	3.823	2.649	11.995	40125.808	18.111
17418.603	31.672	82.739	608.245	669.287	466.895	0.231	33.492	32.451	3.810	2.643	11.995	40128.860	17.990
17418.805	31.601	82.718	608.418	669.572	466.452	0.234	33.409	32.358	3.814	2.642	11.981	40132.164	17.869
17419.005	31.695	82.788	608.175	669.595	467.187	0.235	33.460	32.419	3.815	2.639	12.028	40128.336	19.026
17419.205	31.579	82.748	608.038	669.766	467.092	0.230	33.507	32.472	3.818	2.667	12.000	40135.904	18.138
17419.405	31.614	82.772	608.483	669.940	467.043	0.246	33.457	32.394	3.820	2.626	11.988	40137.841	17.732
17419.605	31.651	82.845	608.271	670.131	467.524	0.235	33.542	32.549	3.795	2.634	12.034	40137.005	18.193
17419.805	31.666	82.782	608.657	670.303	467.136	0.240	33.491	32.412	3.783	2.641	12.013	40143.576	18.686
17420.005	31.702	82.884	608.689	670.535	466.841	0.243	33.489	32.494	3.810	2.656	12.010	40142.608	18.516
17420.205	31.656	82.826	608.864	670.627	467.277	0.240	33.624	32.617	3.814	2.641	11.993	40152.282	18.790
17420.405	31.683	82.907	609.440	670.952	466.965	0.238	33.409	32.376	3.813	2.648	11.994	40157.966	17.562
17420.605	31.603	82.813	609.009	670.962	467.427	0.236	33.510	32.569	3.796	2.639	11.997	40153.044	18.555
17420.805	31.645	82.945	608.891	671.035	467.053	0.233	33.565	32.533	3.787	2.647	11.993	40214.293	17.420
17421.005	31.657	82.850	609.209	671.084	467.567	0.235	33.498	32.486	3.829	2.667	11.999	40209.732	18.489
17421.205	31.687	82.853	609.626	671.247	467.086	0.232	33.602	32.595	3.796	2.644	11.994	40216.333	18.818
17421.405	31.783	82.977	609.296	671.371	467.640	0.237	33.417	32.403	3.784	2.651	12.010	40219.230	18.736
17421.605	31.787	82.989	609.523	671.241	467.558	0.241	33.418	32.413	3.812	2.639	11.982	40219.200	18.143
17421.805	31.773	82.922	609.539	671.154	467.532	0.233	33.583	32.613	3.836	2.633	11.978	40220.885	18.456
17422.005	31.844	82.991	609.530	671.232	467.509	0.236	33.466	32.485	3.784	2.685	11.978	40221.573	18.105
17422.205	31.841	83.066	609.668	671.220	467.931	0.239	33.398	32.387	3.785	2.642	11.973	40221.307	18.686
17422.405	31.866	83.078	609.397	671.228	467.600	0.239	33.507	32.459	3.804	2.660	11.986	40224.086	18.818
17422.605	31.914	83.138	609.480	671.305	467.944	0.240	33.453	32.432	3.826	2.661	12.000	40223.864	18.165
17422.805	31.903	83.166	609.906	671.523	467.410	0.235	33.485	32.438	3.801	2.653	11.980	40226.347	18.253
17423.005	32.005	83.140	610.073	671.676	467.838	0.243	33.332	32.313	3.801	2.664	11.980	40228.077	18.396
17423.205	31.936	83.113	610.248	671.656	467.331	0.232	33.483	32.415	3.805	2.638	11.998	40226.421	18.823
17423.405	31.946	83.146	609.852	671.696	467.570	0.242	33.274	32.235	3.792	2.640	11.982	40224.684	17.919
17423.607	31.963	83.205	609.612	671.584	467.654	0.241	33.383	32.380	3.810	2.655	11.974	40225.187	18.116
17423.807	32.075	83.222	609.518	671.569	468.480	0.235	33.363	32.348	3.757	2.668	11.977	40217.973	18.801
17424.007	31.991	83.172	609.660	671.635	468.128	0.240	33.319	32.282	3.766	2.665	11.999	40211.602	17.721
17424.207	32.130	83.188	609.042	671.554	468.176	0.238	33.291	32.262	3.761	2.649	12.015	40209.799	18.472
17424.407	32.203	83.260	609.392	671.514	468.674	0.236	33.347	32.339	3.822	2.636	11.985	40153.140	18.615
17424.608	32.145	83.207	609.512	671.536	468.186	0.235	33.271	32.247	3.834	2.648	12.010	40152.600	17.891
17424.808	32.146	83.323	609.636	671.644	468.325	0.236	33.367	32.334	3.774	2.631	12.018	40153.081	17.639
17425.010	32.211	83.270	610.144	671.626	467.315	0.234	33.315	32.272	3.791	2.636	11.969	40150.235	18.571
17425.210	32.193	83.322	610.052	671.784	467.947	0.232	33.242	32.212	3.767	2.658	11.977	40154.522	17.908
17425.410	32.280	83.415	609.957	671.748	468.370	0.235	33.379	32.430	3.786	2.650	11.992	40148.166	18.176
17425.610	32.278	83.368	609.326	671.862	467.935	0.230	33.452	32.492	3.812	2.642	12.004	40149.836	17.513
17425.810	32.295	83.396	610.226	671.999	467.962	0.234	33.400	32.328	3.775	2.647	11.999	40147.138	17.628
17426.010	32.255	83.208	609.959	671.972	468.151	0.236	33.411	32.403	3.801	2.623	12.022	40150.265	18.226
17426.210	32.314	83.366	609.961	672.084	467.734	0.234	33.459	32.479	3.775	2.681	11.984	40148.387	18.242
17426.410	32.323	83.378	610.175	672.016	468.689	0.233	33.513	32.484	3.839	2.649	12.000	40152.423	18.423
17426.610	32.351	83.378	609.718	672.109	468.462	0.235	33.369	32.353	3.762	2.651	11.990	40154.655	18.571
17426.810	32.369	83.440	609.841	672.182	468.600	0.235	33.457	32.444	3.813	2.643	11.985	40155.313	17.606
17427.010	32.407	83.464	609.531	672.140	468.445	0.240	33.480	32.474	3.820	2.655	11.987	40165.993	18.308
17427.210	32.419	83.455	609.290	672.237	468.395	0.235	33.457	32.488	3.815	2.645	11.983	40164.884	18.001
17427.411	32.297	83.422	609.244	672.207	468.807	0.241	33.558	32.509	3.796	2.638	11.995	40168.077	17.809
17427.611	32.424	83.478	609.736	672.218	468.578	0.239	33.513	32.462	3.824	2.634	11.977	40172.245	17.924
17427.811	32.388	83.560	609.191	672.239	468.528	0.241	33.576	32.512	3.851	2.646	11.977	40172.563	17.442
17428.011	32.456	83.585	609.451	672.310	468.529	0.241	33.434	32.373	3.801	2.662	12.003	40204.950	18.286
17428.211	32.478	83.514	609.370	672.331	468.718	0.242	33.516	32.486	3.795	2.623	11.977	40217.537	18.363
17428.411	32.466	83.594	609.458	672.351	468.430	0.240	33.502	32.489	3.780	2.653	11.980	40220.117	17.919
17428.611	32.479	83.559	609.169	672.318	468.452	0.240	33.511	32.516	3.828	2.661	12.002	40219.673	18.379
17428.811	32.445	83.598	608.741	672.258	468.459	0.242	33.394	32.364	3.776	2.643	12.004	40218.675	18.122
17429.011	32.446	83.543	609.113	672.192	468.354	0.240	33.380	32.317	3.798	2.656	11.995	40215.416	18.461
17429.211	32.541	83.700	609.316	672.278	468.960	0.239	33.504	32.487	3.828	2.660	11.994	40213.162	17.990
17429.410	32.447	83.533	609.404	672.088	468.906	0.235	33.442	32.429	3.778	2.652	11.998	40213.753	18.434
17429.612	32.457	83.650	609.187	671.951	469.068	0.239	33.462	32.458	3.809	2.638	11.974	40206.333	17.710
17429.814	32.417	83.628	608.850	671.841	468.246	0.235	33.668	32.601	3.827	2.628	11.972	40206.436	17.842
17430.014	32.379	83.603	608.771	671.799	469.021	0.242	33.622	32.599	3.817	2.656	11.998	40205.727	17.836
17430.215	32.394	83.615	609.144	671.836	468.911	0.233	33.653	32.656	3.834	2.656	11.982	40198.616	18.385
17430.415	32.420	83.669	609.344	672.124	468.321	0.237	33.681	32.665	3.809	2.680	12.017	40202.386	17.984
17430.615	32.351	83.654	609.182	672.134	469.362	0.238	33.626	32.647	3.847	2.661	11.991	40205.002	17.979
17430.815	32.410	83.713	609.301	672.097	469.377	0.240	33.653	32.685	3.844	2.639	11.971	40206.414	18.143
17431.015	32.345	83.733	609.884	672.009	469.517	0.242	33.562	32.544	3.794	2.699	11.981	40209.533	17.782
17431.215	32.455	83.806	609.133	671.854	469.468	0.241	33.585	32.562	3.823	2.648	11.981	40218.483	18.319
17431.415	32.313	83.732	609.285	671.663	469.260	0.239	33.619	32.576	3.841	2.652	11.998	40215.327	18.143
17431.615	32.401	83.799	609.390	671.633	468.597	0.234	33.585	32.595	3.798	2.642	11.976	40218.927	17.623
17431.815	32.332	83.732	609.559	671.469	469.170	0.238	33.505	32.472	3.758	2.647	12.032	40223.967	18.056
17432.015	32.448	83.837	608.991	671.183	469.094	0.232	33.593	32.602	3.835	2.650	12.010	40220.944	18.752
17432.215	32.381	83.795	608.758	670.990	468.739	0.234	33.530	32.510	3.811	2.613	11.985	40222.408	18.264
17432.415	32.403	83.807	608.733	670.753	469.592	0.238	33.482	32.476	3.763	2.640	11.993	40219.555	18.549
17432.615	32.354	83.840	608.586	670.583	469.242	0.237	33.486	32.476	3.761	2.660	11.969	40218.897	18.330
17432.815	32.401	83.811	607.778	670.420	469.255	0.238	33.494	32.480	3.785	2.636	11.976	40215.386	18.335
17433.015	32.341	83.865	607.783	670.142	469.354	0.239	33.516	32.463	3.810	2.644	11.963	40214.692	18.116
17433.215	32.312	83.859	607.594	669.871	469.515	0.232	33.557	32.548	3.791	2.644	12.000	40210.080	18.012
17433.415	32.294	83.920	607.707	669.645	469.436	0.236	33.498	32.496	3.807	2.614	12.008	40208.845	18.346
17433.615	32.327	83.917	607.470	669.546	469.711	0.237	33.510	32.513	3.813	2.627	11.997	40208.395	17.897
17433.815	32.270	83.845	607.165	669.464	469.018	0.234	33.452	32.392	3.781	2.628	11.979	40203.871	17.661
17434.015	32.343	83.889	607.312	669.376	469.439	0.242	33.453	32.417	3.806	2.671	11.964	40202.563	18.319
17434.215	32.298	83.956	607.596	669.318	469.618	0.239	33.444	32.391	3.815	2.644	11.999	40203.480	17.749
17434.415	32.253	83.901	606.952	669.222	469.263	0.231	33.493	32.464	3.832	2.612	11.990	40195.741	17.836
17434.615	32.210	83.868	607.031	669.240	468.914	0.234	33.433	32.442	3.813	2.630	12.010	40194.633	18.626
17434.815	32.180	83.958	607.551	669.479	469.423	0.236	33.518	32.498	3.809	2.645	11.985	40162.275	17.727
17435.015	32.282	84.001	607.526	669.631	469.422	0.237	33.514	32.545	3.803	2.635	11.992	40161.588	18.242
17435.215	32.177	83.930	607.819	669.624	469.440	0.239	33.468	32.401	3.825	2.666	11.985	40160.213	18.566
17435.415	32.217	84.002	607.562	669.804	469.351	0.238	33.520	32.464	3.823	2.670	11.978	40168.158	17.655
17435.615	32.187	83.913	607.479	669.773	469.475	0.236	33.505	32.526	3.832	2.608	11.987	40165.217	18.445
17435.815	32.222	84.012	606.647	669.959	469.629	0.235	33.619	32.589	3.780	2.634	11.984	40171.521	18.061
17436.015	32.179	84.000	606.942	669.959	469.314	0.239	33.509	32.479	3.809	2.605	11.993	40175.778	17.645
17436.215	32.123	83.993	607.060	669.958	469.441	0.236	33.550	32.485	3.826	2.647	11.997	40174.574	17.584
17436.415	32.109	84.006	607.013	669.888	469.531	0.236	33.571	32.544	3.798	2.650	11.972	40184.684	17.661
17436.615	32.196	84.027	607.183	669.959	470.137	0.237	33.586	32.563	3.811	2.645	11.995	40183.428	17.842
17436.815	32.107	83.989	607.785	669.933	469.777	0.237	33.612	32.601	3.789	2.640	12.010	40184.189	17.990
17437.015	32.134	84.083	607.846	669.978	469.664	0.237	33.582	32.550	3.828	2.652	11.965	40186.724	17.540
17437.215	32.126	84.098	607.198	669.903	469.123	0.236	33.598	32.563	3.821	2.669	11.996	40188.166	18.237
17437.415	32.106	84.021	607.334	669.865	469.541	0.238	33.583	32.583	3.840	2.661	11.967	40221.004	18.116
17437.615	32.147	84.101	607.167	669.776	469.580	0.233	33.611	32.645	3.836	2.698	12.011	40222.083	18.017
17437.815	32.051	84.016	606.882	669.685	469.953	0.235	33.601	32.583	3.789	2.657	12.030	40222.334	17.946
17438.015	32.083	84.075	607.027	669.634	469.536	0.232	33.650	32.630	3.784	2.702	12.010	40222.497	17.984
17438.215	32.068	84.090	606.771	669.587	469.561	0.230	33.602	32.549	3.800	2.633	12.003	40223.206	18.034
17438.415	32.057	84.129	606.987	669.358	469.821	0.232	33.642	32.621	3.858	2.681	11.982	40220.301	18.522
17438.615	32.101	84.075	606.353	669.170	469.660	0.232	33.476	32.501	3.778	2.687	11.979	40222.940	18.472
17438.815	32.053	84.130	606.418	668.964	469.767	0.235	33.450	32.447	3.791	2.649	11.983	40225.069	17.760
17439.015	32.105	84.203	606.061	668.733	470.345	0.231	33.679	32.684	3.812	2.631	11.984	40221.876	18.198
17439.215	32.116	84.120	606.620	668.603	470.396	0.238	33.517	32.493	3.793	2.670	11.991	40221.817	18.434
17439.415	32.057	84.166	605.972	668.483	470.121	0.237	33.681	32.637	3.818	2.631	11.998	40222.393	18.478
17439.615	31.985	84.125	605.906	668.324	470.236	0.233	33.719	32.723	3.858	2.637	11.973	40224.256	17.842
17439.815	31.985	84.100	605.556	668.063	469.788	0.237	33.648	32.626	3.786	2.646	12.016	40220.834	18.500
17440.015	32.015	84.144	605.082	667.904	470.202	0.234	33.658	32.683	3.838	2.671	12.018	40216.643	18.385
17440.215	31.964	84.146	605.387	667.789	470.245	0.237	33.575	32.576	3.792	2.641	11.991	40220.021	17.760
17440.415	31.880	84.140	605.337	667.456	470.609	0.238	33.641	32.639	3.838	2.634	12.005	40218.757	18.412
17440.615	31.891	84.244	605.259	667.364	470.583	0.237	33.678	32.676	3.811	2.676	11.988	40219.333	17.913
17440.815	31.872	84.135	604.938	667.237	469.757	0.231	33.680	32.665	3.826	2.654	11.975	40219.459	18.615
17441.015	31.965	84.209	605.355	667.128	469.705	0.238	33.558	32.540	3.810	2.662	11.983	40215.379	18.461
17441.217	31.825	84.194	605.442	667.049	470.739	0.235	33.630	32.599	3.835	2.630	12.007	40220.161	18.209
17441.417	31.830	84.219	604.525	666.990	470.501	0.239	33.552	32.563	3.819	2.659	11.980	40218.624	18.045
17441.619	31.906	84.242	604.980	666.932	470.165	0.239	33.674	32.694	3.817	2.641	11.998	40214.403	18.790
17441.821	31.875	84.261	604.828	666.902	470.591	0.246	33.636	32.599	3.797	2.633	12.023	40215.963	18.467
17442.021	31.838	84.254	604.768	666.880	470.502	0.245	33.582	32.561	3.838	2.660	11.994	40221.469	18.176
17442.221	31.896	84.255	604.916	666.801	470.648	0.245	33.518	32.523	3.796	2.643	11.993	40220.287	18.039
17442.421	31.744	84.215	605.240	666.599	470.360	0.233	33.614	32.588	3.852	2.617	12.000	40220.235	17.875
17442.621	31.844	84.270	604.513	666.600	470.791	0.242	33.634	32.587	3.848	2.664	12.013	40216.843	18.500
17442.821	31.763	84.279	604.926	666.677	470.028	0.229	33.539	32.541	3.783	2.602	12.026	40215.283	18.220
17443.021	31.885	84.323	604.990	666.695	470.319	0.231	33.466	32.493	3.803	2.644	12.012	40215.697	17.990
17443.221	31.832	84.299	604.863	666.753	470.404	0.236	33.614	32.639	3.828	2.652	11.979	40212.733	18.434
17443.421	31.842	84.321	605.065	666.942	470.285	0.235	33.516	32.476	3.801	2.650	12.003	40214.537	17.595
17443.622	31.845	84.314	604.981	667.030	470.530	0.238	33.504	32.541	3.824	2.651	11.993	40215.327	18.374
17443.822	31.814	84.357	605.492	667.144	470.503	0.249	33.565	32.526	3.791	2.629	11.987	40215.830	17.864
17444.023	31.855	84.393	605.918	667.223	470.533	0.235	33.554	32.565	3.804	2.641	11.997	40217.744	17.650
17444.223	31.854	84.373	606.145	667.225	470.170	0.229	33.595	32.606	3.813	2.646	11.997	40219.474	17.847
17444.423	31.895	84.335	606.097	667.101	470.187	0.238	33.565	32.543	3.806	2.630	12.016	40215.815	18.401
17444.623	31.898	84.435	605.562	667.276	470.851	0.237	33.573	32.568	3.810	2.635	11.978	40221.565	17.683
17444.824	31.922	84.443	606.157	667.364	470.390	0.243	33.548	32.519	3.801	2.650	11.974	40221.905	17.913
17445.024	31.961	84.443	606.083	667.295	470.291	0.235	33.757	32.692	3.865	2.624	11.967	40220.205	18.165
17445.224	31.918	84.373	606.253	667.480	470.738	0.235	33.556	32.505	3.803	2.665	11.959	40227.101	17.984
17445.424	31.967	84.498	605.816	667.658	470.249	0.240	33.628	32.538	3.816	2.643	11.993	40226.362	18.659
17445.624	31.922	84.438	605.467	667.899	470.343	0.241	33.628	32.599	3.856	2.630	12.002	40230.405	18.138
17445.824	31.962	84.400	605.763	667.986	470.729	0.237	33.627	32.588	3.826	2.647	12.011	40234.049	18.538
17446.024	31.991	84.424	605.369	668.139	470.507	0.241	33.624	32.592	3.788	2.644	12.020	40237.951	17.535
17446.224	32.049	84.533	605.881	668.266	470.884	0.235	33.714	32.713	3.838	2.657	11.991	40241.100	18.472
17446.424	32.009	84.504	606.218	668.368	470.769	0.243	33.654	32.640	3.818	2.632	12.004	40249.621	17.760
17446.624	31.990	84.469	605.737	668.257	470.503	0.243	33.577	32.588	3.817	2.680	11.992	40244.263	18.368
17446.823	31.980	84.535	606.015	668.232	470.666	0.242	33.673	32.677	3.834	2.638	11.987	40292.164	17.683
17447.023	31.980	84.430	605.994	668.110	470.676	0.235	33.713	32.726	3.828	2.654	12.025	40290.272	18.248
17447.223	31.997	84.599	606.131	668.086	470.868	0.238	33.602	32.558	3.795	2.639	11.996	40292.253	17.645
17447.425	32.012	84.493	606.561	667.911	470.969	0.242	33.547	32.566	3.819	2.679	12.005	40289.496	18.270
17447.625	31.991	84.525	605.725	667.603	471.310	0.235	33.512	32.506	3.823	2.655	12.000	40290.634	17.825
17447.825	32.066	84.566	606.205	667.372	470.738	0.244	33.511	32.520	3.814	2.635	12.000	40283.539	18.341
17448.025	32.051	84.621	605.108	667.342	470.763	0.237	33.432	32.422	3.791	2.663	11.990	40289.592	17.261
17448.225	32.030	84.629	605.383	667.191	470.536	0.232	33.523	32.484	3.786	2.661	11.989	40287.190	17.573
17448.425	32.090	84.648	605.829	667.053	471.183	0.217	33.430	32.483	3.787	2.646	11.994	40271.321	18.483
17448.625	32.038	84.538	605.312	666.917	471.026	0.223	33.482	32.517	3.786	2.638	11.996	40274.130	17.935
17448.825	32.079	84.647	605.779	666.985	471.223	0.231	33.539	32.544	3.807	2.627	12.007	40268.402	17.666
17449.025	32.090	84.604	604.942	666.907	470.714	0.237	33.676	32.664	3.827	2.624	12.013	40262.519	17.677
17449.225	32.137	84.677	605.815	666.940	471.095	0.237	33.501	32.526	3.786	2.638	11.994	40260.870	17.946
17449.425	32.171	84.635	605.591	666.974	471.008	0.236	33.547	32.517	3.754	2.650	11.970	40247.463	18.324
17449.625	32.076	84.654	606.054	666.979	471.290	0.236	33.635	32.647	3.844	2.597	11.979	40248.513	17.469
17449.825	32.043	84.664	605.357	667.022	471.296	0.241	33.598	32.605	3.820	2.630	12.018	40249.814	17.513
17450.025	32.060	84.608	606.051	666.974	470.880	0.232	33.677	32.621	3.854	2.658	11.991	40246.244	17.831
17450.225	32.001	84.633	606.088	666.979	471.051	0.237	33.718	32.717	3.833	2.682	12.020	40247.692	17.979
17450.425	32.108	84.703	606.171	667.171	470.562	0.234	33.534	32.522	3.792	2.651	12.015	40254.204	17.908
17450.625	32.030	84.574	605.996	667.129	470.945	0.236	33.630	32.607	3.817	2.625	11.989	40255.948	17.699
17450.825	32.078	84.704	606.131	667.103	471.254	0.248	33.540	32.507	3.795	2.623	11.993	40255.837	18.160
17451.025	32.019	84.720	605.601	667.131	471.543	0.251	33.555	32.566	3.807	2.637	11.992	40260.227	17.606
17451.225	32.016	84.721	606.284	667.091	472.185	0.255	33.518	32.546	3.794	2.659	11.977	40261.129	17.765
17451.425	32.013	84.760	606.053	666.959	471.490	0.254	33.604	32.571	3.812	2.641	11.986	40260.272	17.995
17451.625	32.013	84.749	605.540	667.054	471.366	0.253	33.561	32.546	3.810	2.626	11.981	40259.917	17.732
17451.825	32.069	84.777	606.360	667.045	471.572	0.248	33.743	32.786	3.841	2.637	11.975	40252.859	18.631
17452.025	32.091	84.797	606.039	667.344	471.289	0.256	33.589	32.556	3.843	2.633	11.963	40254.566	18.116
17452.225	32.085	84.839	605.545	667.423	471.725	0.261	33.597	32.592	3.817	2.659	11.998	40252.290	17.699
17452.425	32.096	84.803	605.894	667.386	471.453	0.253	33.615	32.580	3.821	2.625	11.998	40252.009	18.132
17452.625	32.064	84.749	606.026	667.333	471.365	0.253	33.700	32.686	3.797	2.644	11.983	40253.731	18.494
17452.825	32.067	84.776	606.530	667.236	472.013	0.246	33.564	32.531	3.783	2.653	12.008	40252.541	18.193
17453.025	32.156	84.754	606.496	667.144	471.311	0.245	33.654	32.651	3.850	2.664	11.974	40253.406	18.478
17453.225	32.144	84.868	605.431	667.055	471.906	0.244	33.603	32.586	3.812	2.631	11.996	40255.283	17.853
17453.425	32.147	84.797	605.716	666.828	471.861	0.244	33.584	32.555	3.805	2.636	11.988	40254.344	18.467
17453.625	32.173	84.927	605.468	666.873	471.161	0.236	33.605	32.627	3.837	2.622	12.030	40262.770	17.666
17453.825	32.192	84.867	605.621	666.644	471.856	0.251	33.551	32.549	3.788	2.656	12.005	40260.693	17.853
17454.025	32.115	84.790	605.689	666.489	471.783	0.249	33.594	32.606	3.810	2.598	11.964	40261.122	17.804
17454.225	32.223	84.953	605.554	666.410	471.648	0.246	33.677	32.669	3.785	2.635	12.010	40260.582	17.721
17454.425	32.200	84.936	605.042	666.306	471.873	0.245	33.704	32.719	3.820	2.624	12.002	40260.338	18.264
17454.625	32.195	84.962	605.412	666.254	471.360	0.260	33.517	32.550	3.779	2.631	11.988	40261.883	18.039
17454.825	32.283	84.996	605.803	666.364	472.098	0.237	33.674	32.669	3.828	2.639	12.000	40265.032	17.869
17455.027	32.191	84.987	605.377	666.335	471.993	0.235	33.604	32.573	3.814	2.636	12.003	40265.372	17.688
17455.227	32.255	84.964	605.460	666.271	471.693	0.235	33.695	32.623	3.832	2.623	11.996	40268.114	18.138
17455.427	32.200	84.946	604.797	666.442	471.689	0.250	33.514	32.490	3.806	2.617	11.959	40267.899	17.995
17455.629	32.230	85.014	605.292	666.442	471.959	0.248	33.687	32.681	3.809	2.648	12.001	40268.454	17.787
17455.831	32.296	84.981	605.070	666.365	472.147	0.252	33.588	32.661	3.828	2.606	11.984	40267.707	18.429
17456.031	32.221	84.947	605.475	666.356	472.415	0.254	33.618	32.575	3.836	2.631	11.994	40268.298	18.127
17456.231	32.203	85.003	605.005	666.323	471.703	0.250	33.658	32.632	3.802	2.614	12.011	40275.955	18.056
17456.433	32.241	85.098	604.709	666.296	472.138	0.228	33.598	32.592	3.832	2.627	11.994	40274.086	18.270
17456.633	32.253	85.028	605.257	666.386	472.079	0.236	33.608	32.594	3.824	2.643	12.011	40275.586	18.017
17456.833	32.243	85.096	605.297	666.424	471.645	0.241	33.475	32.454	3.806	2.633	11.988	40276.162	17.694
17457.034	32.188	85.009	605.452	666.533	471.874	0.231	33.747	32.735	3.825	2.628	12.001	40275.268	17.573
17457.236	32.298	85.067	605.183	666.675	472.284	0.236	33.571	32.539	3.775	2.630	11.983	40273.746	18.461
17457.436	32.214	85.093	604.906	666.999	472.020	0.234	33.722	32.714	3.834	2.656	11.986	40276.059	18.143
17457.636	32.279	85.123	605.500	667.136	472.260	0.236	33.601	32.546	3.783	2.625	11.972	40273.420	18.407
17457.836	32.268	85.039	605.828	667.261	472.376	0.236	33.508	32.500	3.804	2.655	11.973	40282.164	18.220
17458.036	32.238	85.108	605.193	667.373	472.784	0.234	33.672	32.660	3.816	2.617	11.993	40283.250	17.913
17458.238	32.266	85.038	605.735	667.281	472.283	0.236	33.646	32.601	3.818	2.642	11.995	40283.576	17.831
17458.438	32.318	85.139	605.166	667.273	472.647	0.238	33.553	32.511	3.777	2.620	11.966	40282.829	17.858
17458.638	32.255	85.161	605.134	667.233	471.877	0.240	33.470	32.440	3.806	2.635	11.964	40285.593	17.398
17458.838	32.313	85.153	605.630	667.064	472.572	0.240	33.541	32.512	3.824	2.631	12.015	40282.984	17.919
17459.038	32.367	85.137	605.359	667.030	472.786	0.235	33.555	32.535	3.819	2.647	12.007	40282.622	18.220
17459.238	32.253	85.171	605.181	667.039	472.727	0.237	33.589	32.582	3.811	2.643	12.022	40281.462	17.809
17459.440	32.328	85.185	605.746	667.091	472.293	0.236	33.601	32.591	3.816	2.624	11.988	40273.302	18.297
17459.640	32.278	85.155	605.984	667.264	472.115	0.242	33.510	32.520	3.786	2.664	11.998	40273.021	18.187
17459.840	32.347	85.215	604.531	667.543	472.721	0.238	33.505	32.489	3.853	2.632	11.971	40275.061	17.705
17460.040	32.275	85.223	604.966	667.711	472.464	0.236	33.551	32.557	3.814	2.644	11.984	40277.633	17.146
17460.240	32.347	85.250	605.175	667.745	472.805	0.239	33.609	32.550	3.798	2.655	11.981	40274.337	18.275
17460.440	32.288	85.154	605.840	667.970	472.652	0.242	33.587	32.591	3.835	2.628	12.017	40275.904	17.573
17460.640	32.383	85.255	605.701	668.144	472.127	0.236	33.661	32.674	3.838	2.645	12.008	40274.950	18.165
17460.840	32.333	85.211	605.204	668.306	472.483	0.241	33.501	32.498	3.799	2.654	12.017	40280.457	17.645
17461.042	32.310	85.242	605.944	668.201	472.275	0.234	33.655	32.639	3.805	2.651	12.012	40285.578	17.513
17461.244	32.370	85.312	605.431	668.205	472.030	0.236	33.679	32.639	3.844	2.648	12.011	40285.719	17.617
17461.444	32.349	85.238	605.863	668.012	472.128	0.237	33.566	32.604	3.824	2.633	12.001	40288.542	18.127
17461.644	32.354	85.362	605.299	667.982	472.442	0.239	33.612	32.594	3.815	2.652	11.949	40291.100	17.491
17461.844	32.381	85.316	605.428	667.770	472.292	0.240	33.556	32.550	3.797	2.637	11.987	40289.333	18.165
17462.044	32.298	85.286	604.742	667.621	472.770	0.240	33.642	32.636	3.821	2.622	12.010	40288.313	17.897
17462.245	32.326	85.300	605.011	667.567	472.653	0.239	33.633	32.619	3.798	2.655	12.011	40290.937	17.864
17462.445	32.420	85.327	604.724	667.498	472.304	0.237	33.674	32.674	3.827	2.637	11.999	40291.425	18.626
17462.645	32.387	85.375	605.066	667.596	472.772	0.239	33.776	32.792	3.828	2.644	11.998	40291.617	18.609
