MiniLab	20-Oct-15	3:25:19 PM	

Time (sec)	T1 (C)	T2 (C)	T3 (C)	T4 (C)	T5 (C)	P1 (kPa)	P2 (kPa)	P3 (kPa)	P4 (kPa)	P5 (kPa)	Fuel Flow  (L/hr)	N1 (RPM)	Thrust (N)
17881.037	32.899	132.241	667.480	678.456	481.809	0.722	88.659	87.463	9.528	6.835	21.194	60033.051	42.750
17881.237	32.899	132.202	667.379	678.452	481.962	0.708	88.515	87.395	9.393	6.884	21.184	60032.053	43.035
17881.437	32.860	132.277	666.667	678.495	482.541	0.708	88.543	87.358	9.487	6.832	21.187	60036.052	42.114
17881.637	32.808	132.329	667.202	678.514	481.918	0.710	88.563	87.348	9.405	6.886	21.190	60034.788	42.103
17881.840	32.813	132.278	667.260	678.433	481.833	0.712	88.549	87.394	9.528	6.844	21.193	60034.307	42.005
17882.042	32.792	132.247	666.944	678.180	481.652	0.736	88.568	87.378	9.443	6.848	21.198	60032.630	42.767
17882.242	32.785	132.281	666.894	678.148	481.469	0.708	88.560	87.361	9.438	6.840	21.207	60034.514	42.427
17882.442	32.801	132.275	666.683	677.935	481.742	0.704	88.514	87.344	9.473	6.838	21.205	60030.597	43.342
17882.642	32.838	132.332	667.556	678.036	481.856	0.705	88.529	87.283	9.447	6.855	21.204	60033.568	42.789
17882.842	32.783	132.379	667.108	678.097	481.576	0.695	88.467	87.275	9.405	6.850	21.202	60035.246	42.098
17883.044	32.774	132.306	666.922	678.071	481.326	0.715	88.478	87.335	9.427	6.847	21.201	60030.568	42.706
17883.244	32.765	132.332	666.666	678.009	481.447	0.714	88.413	87.206	9.451	6.825	21.197	60032.430	42.383
17883.444	32.809	132.221	667.024	677.858	482.246	0.721	88.386	87.257	9.403	6.806	21.199	60027.670	42.811
17883.644	32.791	132.314	667.222	677.813	481.523	0.729	88.455	87.210	9.423	6.812	21.189	60026.680	42.641
17883.844	32.837	132.373	667.174	677.861	481.627	0.705	88.450	87.327	9.447	6.818	21.195	60028.528	42.087
17884.043	32.776	132.406	667.165	677.796	481.169	0.707	88.403	87.260	9.397	6.832	21.187	60020.930	42.372
17884.243	32.783	132.368	667.208	677.713	481.366	0.713	88.382	87.191	9.467	6.772	21.185	60018.121	42.750
17884.443	32.794	132.249	667.141	677.750	481.563	0.701	88.354	87.117	9.354	6.818	21.193	60017.973	42.904
17884.643	32.742	132.400	667.040	677.757	481.734	0.697	88.368	87.123	9.425	6.814	21.202	60012.098	42.427
17884.843	32.757	132.384	667.659	677.776	481.299	0.694	88.263	87.033	9.439	6.835	21.202	60010.590	42.273
17885.043	32.805	132.436	667.334	677.753	481.330	0.691	88.292	87.154	9.444	6.836	21.197	60008.860	42.684
17885.246	32.782	132.331	666.906	677.845	481.832	0.684	88.301	87.117	9.420	6.808	21.206	60004.270	42.597
17885.450	32.813	132.363	667.232	677.931	481.522	0.700	88.264	87.049	9.435	6.835	21.204	60005.616	42.871
17885.652	32.855	132.491	667.878	678.022	481.806	0.705	88.220	87.048	9.420	6.835	21.216	60003.687	41.813
17885.853	32.894	132.516	667.315	678.020	481.596	0.697	88.324	87.087	9.401	6.819	21.211	60003.088	41.966
17886.053	32.924	132.505	667.207	678.100	481.138	0.697	88.260	87.011	9.420	6.844	21.200	60003.428	42.641
17886.253	32.847	132.402	667.670	678.004	481.496	0.705	88.322	87.113	9.484	6.789	21.202	60005.061	42.641
17886.455	32.838	132.411	667.883	678.026	481.746	0.689	88.238	87.055	9.381	6.766	21.195	60005.120	42.772
17886.655	32.921	132.504	667.485	678.095	481.071	0.693	88.228	86.997	9.357	6.799	21.191	60003.384	42.125
17886.855	32.879	132.426	668.018	678.045	481.705	0.715	88.271	87.039	9.386	6.830	21.193	60001.196	42.295
17887.055	32.964	132.604	667.706	678.162	481.332	0.709	88.110	86.946	9.423	6.769	21.185	60003.243	42.257
17887.255	32.882	132.401	667.223	678.114	481.332	0.711	88.279	87.058	9.412	6.819	21.190	60003.524	42.624
17887.455	32.954	132.486	667.374	678.125	481.257	0.702	88.195	87.019	9.329	6.888	21.195	60002.201	42.701
17887.655	32.938	132.473	667.555	678.228	480.894	0.699	88.285	87.024	9.392	6.801	21.189	60000.102	42.197
17887.855	33.016	132.629	667.005	678.352	481.258	0.700	88.321	87.149	9.324	6.847	21.198	60000.412	42.032
17888.055	33.001	132.568	667.364	678.367	481.056	0.692	88.308	86.983	9.448	6.786	21.203	59996.347	42.136
17888.255	33.007	132.599	667.057	678.408	481.750	0.696	88.321	87.056	9.328	6.836	21.208	59998.372	42.449
17888.455	33.002	132.535	666.762	678.360	481.095	0.710	88.348	87.039	9.437	6.791	21.202	59994.936	43.063
17888.655	33.082	132.646	667.054	678.355	481.183	0.705	88.271	87.038	9.387	6.805	21.202	59995.431	42.975
17888.855	33.029	132.524	667.205	678.363	481.546	0.712	88.340	87.099	9.393	6.801	21.210	59993.539	42.789
17889.057	33.066	132.637	667.376	678.429	481.040	0.719	88.278	87.129	9.393	6.798	21.208	59995.401	42.169
17889.257	33.004	132.575	667.472	678.381	480.766	0.718	88.297	87.083	9.433	6.861	21.198	59996.362	42.668
17889.459	33.032	132.626	667.158	678.598	481.301	0.694	88.276	87.078	9.383	6.831	21.198	59999.570	41.791
17889.661	33.112	132.672	667.347	678.533	481.165	0.707	88.196	87.015	9.452	6.839	21.191	59998.993	42.482
17889.861	33.105	132.760	667.552	678.488	481.436	0.715	88.286	87.063	9.434	6.800	21.188	59998.432	42.092
17890.063	33.075	132.754	666.280	678.505	481.206	0.708	88.278	87.087	9.382	6.816	21.186	59998.003	42.213
17890.263	32.992	132.604	667.866	678.392	480.267	0.710	88.399	87.151	9.373	6.818	21.184	59997.057	42.816
17890.464	33.056	132.745	666.798	678.373	480.968	0.702	88.427	87.148	9.417	6.798	21.187	59996.355	42.876
17890.664	33.006	132.651	667.544	678.419	481.498	0.713	88.429	87.157	9.375	6.809	21.195	59996.754	42.843
17890.864	33.034	132.721	666.953	678.365	481.539	0.713	88.283	87.169	9.434	6.854	21.186	60000.132	43.414
17891.064	32.947	132.723	667.256	678.363	481.486	0.705	88.404	87.204	9.409	6.804	21.199	59998.712	42.695
17891.264	32.938	132.704	667.493	678.385	481.671	0.710	88.447	87.224	9.491	6.785	21.203	59999.784	42.783
17891.464	32.991	132.728	668.086	678.377	481.500	0.712	88.484	87.272	9.379	6.821	21.203	60004.736	42.558
17891.665	32.974	132.817	667.576	678.127	481.571	0.701	88.523	87.283	9.414	6.837	21.212	60003.783	42.964
17891.865	32.896	132.773	667.290	677.909	480.642	0.718	88.529	87.454	9.432	6.852	21.206	60005.557	42.580
17892.065	32.898	132.775	667.456	677.788	480.969	0.712	88.572	87.332	9.394	6.813	21.202	60004.581	42.542
17892.265	32.882	132.779	667.143	677.867	481.338	0.710	88.522	87.462	9.467	6.822	21.211	60007.456	42.454
17892.465	32.904	132.878	667.746	677.732	481.303	0.708	88.552	87.340	9.409	6.807	21.195	60011.809	42.564
17892.665	32.774	132.744	667.514	677.753	480.726	0.723	88.533	87.284	9.445	6.811	21.196	60011.248	42.695
17892.865	32.865	132.737	667.445	677.674	481.542	0.725	88.520	87.342	9.377	6.811	21.196	60013.539	43.249
17893.065	32.831	132.798	667.435	677.663	481.164	0.717	88.642	87.463	9.475	6.835	21.184	60017.109	42.668
17893.265	32.855	132.848	667.359	677.600	481.465	0.707	88.588	87.415	9.393	6.852	21.186	60015.549	42.871
17893.465	32.859	132.873	667.292	677.590	481.226	0.718	88.572	87.443	9.472	6.837	21.184	60018.047	42.558
17893.665	32.819	132.806	668.041	677.509	480.636	0.722	88.628	87.506	9.434	6.826	21.192	60016.998	43.211
17893.865	32.810	132.803	667.782	677.421	480.769	0.710	88.609	87.411	9.434	6.808	21.183	60019.496	42.964
17894.065	32.802	132.856	667.607	677.514	481.002	0.725	88.633	87.486	9.448	6.883	21.198	60020.538	42.421
17894.265	32.758	132.818	668.130	677.376	481.214	0.715	88.714	87.536	9.383	6.850	21.204	60017.353	42.509
17894.465	32.785	132.825	667.303	677.331	481.005	0.737	88.571	87.368	9.408	6.817	21.203	60022.090	43.118
17894.665	32.849	132.896	666.756	677.343	480.971	0.688	88.657	87.431	9.413	6.830	21.204	60024.211	42.684
17894.865	32.741	132.746	667.436	677.255	480.935	0.714	88.578	87.338	9.424	6.867	21.203	60023.029	42.438
17895.065	32.815	132.854	666.690	677.261	481.113	0.718	88.509	87.349	9.457	6.817	21.209	60024.086	42.723
17895.265	32.805	132.887	666.441	677.298	481.250	0.723	88.508	87.346	9.448	6.811	21.205	60023.635	42.909
17895.468	32.784	132.868	666.607	677.346	481.123	0.702	88.370	87.147	9.407	6.823	21.193	60024.307	42.191
17895.668	32.737	132.890	666.400	677.387	480.534	0.727	88.280	87.046	9.323	6.840	21.193	60024.315	42.827
17895.868	32.744	132.916	666.182	677.325	481.539	0.707	88.313	87.108	9.437	6.844	21.182	60023.117	42.871
17896.068	32.747	132.916	666.396	677.510	481.182	0.700	88.248	87.056	9.337	6.823	21.197	60022.918	42.509
17896.268	32.728	132.928	666.804	677.673	480.995	0.696	88.201	87.054	9.420	6.799	21.191	60028.579	42.421
17896.468	32.824	132.930	666.454	677.789	480.907	0.721	88.306	87.049	9.439	6.844	21.186	60025.970	42.268
17896.670	32.814	132.932	666.600	677.834	481.181	0.705	88.234	87.003	9.349	6.790	21.187	60018.469	42.602
17896.873	32.791	132.979	666.358	677.996	481.153	0.707	88.267	87.138	9.385	6.829	21.182	60019.392	42.356
17897.073	32.785	132.903	666.345	678.064	480.573	0.710	88.341	87.116	9.411	6.836	21.187	60017.404	42.432
17897.273	32.782	132.997	666.906	678.080	480.785	0.705	88.299	87.089	9.402	6.843	21.199	60018.040	42.076
17897.473	32.827	133.035	666.927	677.911	480.721	0.717	88.254	87.120	9.405	6.829	21.200	60015.800	42.854
17897.673	32.818	132.986	666.795	677.814	480.879	0.697	88.334	87.062	9.386	6.842	21.205	60010.361	42.970
17897.873	32.799	132.926	666.360	677.784	480.810	0.700	88.293	87.076	9.365	6.795	21.203	60012.874	41.906
17898.073	32.816	132.996	666.451	677.577	480.227	0.704	88.416	87.273	9.331	6.823	21.204	60006.658	43.266
17898.273	32.780	132.962	666.232	677.491	480.750	0.695	88.480	87.303	9.459	6.816	21.207	60004.707	42.504
17898.473	32.749	133.000	666.504	677.567	480.586	0.700	88.419	87.212	9.424	6.824	21.199	60006.207	42.142
17898.673	32.769	132.956	666.602	677.526	480.938	0.711	88.341	87.117	9.406	6.815	21.194	60006.953	42.860
17898.873	32.721	132.994	667.042	677.613	480.932	0.713	88.407	87.204	9.441	6.852	21.190	60006.761	42.016
17899.073	32.794	132.979	666.870	677.641	481.147	0.688	88.395	87.186	9.418	6.860	21.188	60007.936	42.482
17899.274	32.796	133.051	667.196	677.625	481.077	0.692	88.348	87.170	9.384	6.832	21.186	60008.823	42.981
17899.476	32.734	133.019	667.416	677.610	480.843	0.696	88.357	87.153	9.435	6.826	21.189	60009.289	42.564
17899.676	32.732	132.991	667.186	677.542	480.743	0.704	88.421	87.196	9.346	6.846	21.188	60009.821	42.619
17899.876	32.673	132.978	667.316	677.607	479.900	0.694	88.463	87.315	9.401	6.845	21.187	60013.236	42.312
17900.078	32.696	132.971	666.575	677.543	480.648	0.693	88.323	87.184	9.351	6.813	21.186	60011.809	42.465
17900.278	32.715	133.021	666.937	677.609	480.816	0.705	88.356	87.126	9.377	6.849	21.203	60012.223	42.427
17900.480	32.730	133.018	667.682	677.427	480.990	0.703	88.339	87.153	9.402	6.825	21.206	60012.659	42.197
17900.682	32.658	132.987	667.584	677.341	481.097	0.726	88.408	87.165	9.363	6.828	21.209	60010.730	41.791
17900.884	32.651	133.018	667.313	677.191	480.436	0.735	88.366	87.172	9.428	6.865	21.204	60010.146	41.988
17901.084	32.734	133.069	667.245	676.959	480.592	0.707	88.411	87.131	9.376	6.829	21.208	60009.200	42.619
17901.286	32.711	133.033	667.257	676.818	480.756	0.700	88.318	87.159	9.381	6.843	21.198	60006.732	42.465
17901.485	32.710	133.001	667.609	676.676	480.303	0.717	88.375	87.092	9.394	6.829	21.196	60008.069	41.889
17901.685	32.703	133.068	667.517	676.651	480.659	0.718	88.332	87.109	9.447	6.813	21.197	60010.095	41.829
17901.885	32.717	133.102	667.453	676.468	481.050	0.708	88.257	87.014	9.424	6.810	21.193	60008.417	42.081
17902.085	32.739	133.093	667.078	676.447	481.179	0.701	88.273	87.054	9.329	6.841	21.185	60008.291	42.728
17902.287	32.720	133.177	667.923	676.325	480.268	0.712	88.275	87.054	9.393	6.812	21.188	60008.372	42.279
17902.487	32.728	133.122	667.574	676.336	480.554	0.712	88.347	87.121	9.403	6.872	21.182	60007.936	42.229
17902.689	32.671	133.090	667.623	676.293	480.360	0.710	88.262	87.027	9.331	6.855	21.178	60011.491	41.741
17902.889	32.671	133.122	667.229	676.139	480.820	0.714	88.229	87.145	9.343	6.819	21.192	60007.833	42.136
17903.089	32.627	133.119	666.817	675.928	480.500	0.720	88.268	87.117	9.390	6.818	21.190	60007.899	42.114
17903.289	32.669	133.134	667.449	675.781	480.719	0.727	88.299	87.163	9.356	6.844	21.201	60004.330	42.169
17903.489	32.600	133.007	666.853	675.722	480.889	0.702	88.390	87.260	9.435	6.848	21.192	60001.661	42.218
17903.691	32.636	133.002	666.910	675.448	480.705	0.702	88.413	87.292	9.456	6.825	21.194	60003.132	42.745
17903.891	32.597	133.021	666.728	675.463	480.309	0.700	88.378	87.182	9.422	6.837	21.209	60003.154	42.142
17904.091	32.616	133.102	666.111	675.434	480.647	0.710	88.342	87.114	9.405	6.813	21.202	60003.775	42.191
17904.293	32.614	133.093	666.388	675.498	480.387	0.712	88.285	87.103	9.385	6.856	21.202	60001.617	42.482
17904.493	32.619	133.046	666.274	675.512	481.090	0.706	88.387	87.258	9.312	6.841	21.208	60000.627	42.504
17904.693	32.672	133.180	665.746	675.536	480.583	0.718	88.263	87.130	9.374	6.826	21.189	60002.467	42.443
17904.893	32.638	133.138	666.547	675.542	480.885	0.732	88.210	87.017	9.339	6.835	21.188	60003.007	41.944
17905.093	32.640	133.118	666.472	675.497	480.027	0.728	88.223	87.082	9.404	6.831	21.196	60001.499	42.323
17905.293	32.647	133.111	665.973	675.519	480.225	0.733	88.217	86.957	9.401	6.825	21.183	60002.519	41.906
17905.493	32.637	133.155	665.466	675.525	480.559	0.709	88.183	87.070	9.349	6.825	21.184	60001.129	41.692
17905.693	32.625	133.008	665.847	675.441	479.880	0.735	88.280	87.058	9.375	6.824	21.184	59999.015	42.712
17905.893	32.685	133.244	665.704	675.647	480.345	0.737	88.293	87.037	9.373	6.791	21.190	59999.681	41.900
17906.093	32.724	133.238	666.068	675.685	480.709	0.721	88.300	87.091	9.387	6.823	21.190	59995.675	42.306
17906.293	32.706	133.289	665.608	675.814	479.886	0.715	88.267	87.040	9.419	6.800	21.197	59996.259	42.394
17906.493	32.667	133.220	665.258	675.696	479.917	0.721	88.243	87.123	9.389	6.863	21.202	59992.437	42.515
17906.695	32.651	133.220	665.458	675.794	480.859	0.745	88.204	86.975	9.447	6.855	21.202	59997.404	41.681
17906.895	32.718	133.186	665.592	675.727	480.777	0.748	88.222	87.038	9.308	6.812	21.201	59990.760	42.175
17907.095	32.688	133.096	664.849	675.780	479.899	0.750	88.168	87.036	9.344	6.783	21.199	59993.997	41.829
17907.295	32.746	133.165	665.621	675.855	480.565	0.704	88.291	87.093	9.382	6.799	21.208	59994.603	42.202
17907.495	32.752	133.178	665.841	675.759	479.958	0.725	88.271	87.010	9.408	6.845	21.202	59991.957	42.246
17907.697	32.695	133.126	665.628	675.709	480.759	0.739	88.300	87.093	9.341	6.864	21.196	59990.701	42.295
17907.897	32.741	133.175	666.071	675.718	480.377	0.717	88.321	87.116	9.382	6.845	21.190	59990.457	42.909
17908.097	32.671	133.141	665.279	675.764	479.919	0.722	88.299	87.077	9.409	6.789	21.187	59991.418	42.547
17908.297	32.688	133.160	665.659	675.733	480.043	0.687	88.384	87.117	9.393	6.802	21.188	59992.607	42.153
17908.497	32.705	133.260	665.099	675.809	480.504	0.710	88.347	87.115	9.434	6.838	21.181	59995.512	42.202
17908.697	32.733	133.116	665.187	675.831	480.763	0.692	88.335	87.168	9.354	6.857	21.188	59991.551	42.531
17908.897	32.768	133.198	664.831	675.969	480.403	0.708	88.255	86.990	9.375	6.827	21.180	59992.704	42.487
17909.099	32.753	133.198	664.812	676.024	480.365	0.730	88.222	87.065	9.346	6.787	21.191	59998.424	42.410
17909.301	32.764	133.184	664.804	676.136	480.095	0.748	88.221	87.014	9.314	6.793	21.191	59996.828	42.218
17909.502	32.859	133.288	665.146	676.187	479.729	0.718	88.216	87.042	9.386	6.822	21.194	60000.878	41.769
17909.702	32.820	133.238	665.245	676.106	480.086	0.748	88.289	87.083	9.388	6.825	21.198	59997.692	42.476
17909.902	32.791	133.201	665.227	676.144	479.980	0.711	88.183	87.031	9.415	6.806	21.195	59997.463	41.988
17910.104	32.831	133.152	665.242	676.069	480.015	0.711	88.300	86.985	9.395	6.801	21.206	59993.413	42.295
17910.304	32.890	133.239	664.873	676.148	480.268	0.695	88.229	87.063	9.388	6.833	21.210	59992.755	42.070
17910.506	32.912	133.260	665.351	676.191	480.935	0.688	88.316	87.155	9.375	6.814	21.209	59993.990	42.207
17910.706	32.835	133.264	665.702	676.144	480.717	0.713	88.299	87.117	9.376	6.835	21.199	59989.134	42.005
17910.906	32.891	133.207	665.547	676.232	480.527	0.702	88.238	87.115	9.443	6.802	21.197	59988.166	42.087
17911.108	32.883	133.155	666.026	676.349	480.141	0.703	88.242	87.081	9.348	6.803	21.188	59982.275	42.005
17911.308	32.920	133.253	666.297	676.466	480.143	0.698	88.333	87.134	9.397	6.813	21.189	59983.820	41.763
17911.510	32.925	133.339	665.547	676.492	479.951	0.694	88.326	87.250	9.396	6.835	21.187	59982.814	42.619
17911.710	32.924	133.214	666.113	676.533	480.172	0.688	88.332	87.102	9.406	6.845	21.185	59983.731	42.646
17911.911	32.963	133.344	666.621	676.508	480.710	0.705	88.283	87.046	9.443	6.828	21.179	59981.905	42.350
17912.113	32.916	133.243	666.471	676.398	479.894	0.711	88.258	87.046	9.403	6.782	21.186	59981.321	42.663
17912.313	32.853	133.171	666.470	676.328	479.804	0.700	88.241	86.972	9.393	6.798	21.185	59981.639	42.125
17912.513	32.811	133.313	665.820	676.262	480.597	0.685	88.243	87.044	9.406	6.769	21.194	59986.111	41.665
17912.713	32.857	133.259	665.343	676.146	480.040	0.706	88.252	87.050	9.417	6.809	21.197	59980.967	42.871
17912.913	32.839	133.338	665.729	676.060	480.685	0.700	88.260	87.072	9.422	6.852	21.192	59978.358	43.244
17913.113	32.879	133.292	665.845	676.025	480.230	0.712	88.344	87.134	9.314	6.845	21.201	59980.043	42.701
17913.313	32.737	133.247	665.678	675.911	479.647	0.708	88.349	87.103	9.392	6.835	21.209	59980.900	42.520
17913.513	32.791	133.239	665.766	675.780	480.112	0.711	88.278	87.076	9.393	6.814	21.205	59983.775	42.778
17913.713	32.757	133.236	665.633	675.783	479.903	0.679	88.268	87.078	9.435	6.775	21.208	59984.004	42.372
17913.913	32.783	133.228	665.797	675.670	479.489	0.723	88.288	87.156	9.278	6.830	21.197	59982.999	42.657
17914.113	32.803	133.352	665.264	675.669	479.648	0.718	88.305	87.156	9.353	6.855	21.197	59984.367	42.350
17914.313	32.745	133.307	665.378	675.562	479.932	0.685	88.338	87.038	9.450	6.822	21.186	59986.362	42.010
17914.513	32.794	133.355	664.868	675.442	480.413	0.702	88.330	87.117	9.386	6.831	21.180	59988.646	42.432
17914.713	32.786	133.350	664.987	675.315	480.273	0.717	88.348	87.086	9.343	6.807	21.187	59987.589	42.279
17914.913	32.782	133.388	664.479	675.223	480.682	0.714	88.272	87.048	9.384	6.818	21.182	59990.981	42.893
17915.113	32.814	133.427	664.208	675.080	480.678	0.710	88.238	87.031	9.388	6.838	21.181	59988.151	42.476
17915.313	32.790	133.380	664.577	675.122	480.092	0.728	88.274	87.092	9.369	6.803	21.181	59989.629	42.515
17915.513	32.837	133.388	665.001	675.097	480.161	0.698	88.248	86.946	9.369	6.802	21.189	59990.309	42.531
17915.713	32.798	133.363	665.356	675.041	480.086	0.696	88.150	86.929	9.309	6.817	21.198	59988.690	42.805
17915.913	32.760	133.261	664.463	675.032	480.474	0.706	88.161	87.021	9.381	6.829	21.201	59989.237	42.860
17916.113	32.811	133.277	665.153	675.093	480.610	0.705	88.162	87.006	9.354	6.776	21.204	59989.740	42.246
17916.313	32.810	133.176	665.172	675.072	480.014	0.703	88.171	86.991	9.387	6.812	21.203	59985.823	42.805
17916.513	32.753	133.281	665.361	675.110	480.245	0.693	88.230	86.998	9.402	6.798	21.195	59986.798	42.498
17916.713	32.773	133.219	665.302	675.208	480.038	0.714	88.166	87.021	9.396	6.813	21.205	59983.480	42.575
17916.914	32.818	133.317	665.924	675.197	480.053	0.700	88.185	87.038	9.385	6.826	21.199	59986.133	42.805
17917.114	32.774	133.354	665.555	675.357	479.841	0.730	88.221	87.008	9.373	6.829	21.195	59988.269	41.879
17917.314	32.821	133.326	665.681	675.431	479.941	0.708	88.292	87.219	9.391	6.827	21.188	59987.242	42.811
17917.514	32.849	133.397	665.998	675.562	479.809	0.716	88.275	87.051	9.327	6.840	21.182	59991.115	41.873
17917.714	32.830	133.331	666.367	675.679	480.252	0.718	88.289	87.029	9.385	6.828	21.192	59989.939	42.827
17917.914	32.810	133.351	666.423	675.694	480.401	0.710	88.350	87.144	9.445	6.811	21.179	59991.299	42.827
17918.114	32.785	133.254	666.109	675.687	479.653	0.705	88.237	87.012	9.316	6.826	21.179	59992.304	42.580
17918.314	32.723	133.265	665.829	675.620	479.927	0.693	88.345	87.091	9.360	6.805	21.185	59990.937	42.493
17918.514	32.770	133.361	666.303	675.601	480.181	0.695	88.341	87.128	9.457	6.799	21.184	59993.147	42.536
17918.714	32.775	133.328	665.823	675.591	480.324	0.690	88.281	87.177	9.324	6.802	21.198	59994.004	42.043
17918.913	32.780	133.343	666.187	675.630	479.838	0.707	88.415	87.151	9.386	6.799	21.208	59990.649	42.175
17919.113	32.785	133.382	665.635	675.538	480.399	0.703	88.394	87.196	9.416	6.840	21.201	59989.407	42.476
17919.313	32.796	133.421	666.258	675.486	480.109	0.695	88.373	87.185	9.356	6.840	21.204	59990.664	42.515
17919.513	32.753	133.280	665.862	675.429	479.851	0.715	88.401	87.228	9.387	6.793	21.201	59988.579	42.898
17919.713	32.731	133.337	666.002	675.399	479.537	0.703	88.479	87.317	9.442	6.787	21.208	59992.112	41.988
17919.913	32.810	133.360	665.791	675.302	480.447	0.709	88.462	87.236	9.417	6.851	21.198	59990.183	42.663
17920.113	32.777	133.401	665.523	675.344	479.640	0.722	88.475	87.255	9.419	6.823	21.195	59996.059	42.147
17920.315	32.801	133.487	666.499	675.237	480.315	0.707	88.514	87.300	9.354	6.834	21.187	59996.673	42.048
17920.515	32.847	133.398	666.421	675.316	479.862	0.714	88.463	87.369	9.428	6.848	21.182	60000.494	42.323
17920.715	32.852	133.451	666.088	675.357	480.305	0.722	88.465	87.246	9.384	6.851	21.181	60001.129	42.706
17920.915	32.785	133.246	665.696	675.257	480.446	0.729	88.464	87.268	9.453	6.839	21.178	59999.452	43.013
17921.115	32.760	133.403	666.138	675.291	480.203	0.718	88.408	87.188	9.425	6.826	21.182	60003.916	41.818
17921.315	32.796	133.432	666.058	675.243	479.842	0.695	88.465	87.248	9.372	6.855	21.180	60002.741	42.542
17921.515	32.796	133.358	666.185	675.280	479.814	0.717	88.564	87.360	9.369	6.853	21.188	60007.877	43.162
17921.715	32.723	133.367	665.259	675.366	479.821	0.716	88.557	87.369	9.409	6.858	21.202	60008.816	42.717
17921.915	32.821	133.411	665.858	675.373	479.528	0.710	88.437	87.226	9.397	6.854	21.204	60006.628	43.046
17922.115	32.748	133.344	666.147	675.392	479.171	0.712	88.512	87.290	9.374	6.832	21.211	60010.782	42.920
17922.315	32.761	133.433	665.588	675.489	479.525	0.721	88.423	87.264	9.434	6.815	21.204	60015.593	42.240
17922.515	32.714	133.331	665.530	675.424	479.557	0.702	88.387	87.183	9.410	6.791	21.203	60015.837	43.024
17922.715	32.751	133.382	665.428	675.454	479.570	0.705	88.438	87.291	9.349	6.851	21.197	60015.239	42.701
17922.915	32.682	133.394	665.899	675.471	479.679	0.713	88.485	87.331	9.328	6.840	21.200	60015.948	42.964
17923.115	32.696	133.463	665.778	675.478	479.823	0.710	88.410	87.249	9.465	6.807	21.198	60013.664	43.255
17923.315	32.675	133.372	665.627	675.590	480.045	0.717	88.502	87.261	9.358	6.858	21.187	60013.058	42.460
17923.515	32.649	133.352	665.955	675.582	479.549	0.729	88.462	87.248	9.353	6.852	21.182	60012.844	42.887
17923.715	32.650	133.409	665.650	675.576	479.616	0.725	88.514	87.315	9.356	6.826	21.191	60011.543	42.860
17923.915	32.698	133.393	665.640	675.573	479.692	0.715	88.560	87.392	9.412	6.818	21.180	60011.617	42.723
17924.117	32.699	133.418	665.887	675.570	479.176	0.738	88.434	87.311	9.495	6.826	21.186	60008.143	42.778
17924.317	32.646	133.428	665.715	675.542	479.787	0.715	88.488	87.308	9.394	6.836	21.187	60006.887	43.167
17924.517	32.632	133.314	666.099	675.570	479.929	0.725	88.565	87.279	9.394	6.828	21.184	60007.523	42.695
17924.717	32.657	133.381	666.066	675.590	479.224	0.708	88.556	87.339	9.465	6.836	21.195	60008.727	43.129
17924.917	32.664	133.497	666.243	675.575	479.140	0.721	88.497	87.328	9.455	6.858	21.210	60009.230	42.290
17925.117	32.638	133.387	665.981	675.468	478.860	0.729	88.539	87.328	9.366	6.839	21.204	60004.877	42.789
17925.317	32.639	133.461	665.945	675.554	479.087	0.714	88.514	87.242	9.439	6.785	21.200	60005.771	42.388
17925.517	32.665	133.490	665.726	675.481	479.267	0.690	88.434	87.346	9.365	6.808	21.202	60007.729	42.498
17925.720	32.708	133.518	665.626	675.320	479.932	0.669	88.377	87.162	9.370	6.814	21.203	60004.389	42.843
17925.920	32.691	133.544	665.968	675.213	479.842	0.718	88.332	87.069	9.395	6.830	21.201	60003.812	42.405
17926.120	32.698	133.535	665.426	675.173	479.740	0.707	88.379	87.152	9.383	6.825	21.195	60001.055	42.986
17926.320	32.666	133.488	665.285	675.235	479.376	0.706	88.256	87.063	9.342	6.843	21.185	59995.335	42.070
17926.520	32.615	133.340	665.307	675.250	479.348	0.709	88.369	87.153	9.405	6.823	21.190	59997.035	42.273
17926.720	32.690	133.486	665.502	675.213	479.761	0.718	88.388	87.171	9.367	6.820	21.184	59994.551	42.405
17926.920	32.628	133.467	664.861	675.252	479.604	0.715	88.298	87.152	9.380	6.852	21.183	59991.107	42.789
17927.120	32.697	133.427	664.769	675.275	479.435	0.710	88.400	87.121	9.401	6.770	21.182	59992.955	42.734
17927.320	32.671	133.424	664.793	675.415	479.547	0.717	88.483	87.294	9.375	6.845	21.186	59992.674	42.498
17927.520	32.667	133.414	665.269	675.347	479.563	0.730	88.417	87.247	9.398	6.831	21.181	59990.523	43.096
17927.720	32.623	133.451	664.799	675.442	479.162	0.712	88.436	87.224	9.398	6.786	21.197	59993.694	42.624
17927.920	32.652	133.371	665.104	675.495	479.823	0.698	88.423	87.119	9.438	6.799	21.204	59998.491	42.197
17928.120	32.658	133.451	664.894	675.518	479.338	0.697	88.387	87.111	9.353	6.821	21.198	59992.216	42.794
17928.320	32.705	133.477	664.890	675.699	479.665	0.713	88.371	87.193	9.450	6.793	21.205	59996.990	41.807
17928.520	32.735	133.535	665.977	675.750	479.760	0.733	88.312	87.214	9.368	6.839	21.199	59993.457	42.778
17928.720	32.697	133.464	665.449	675.876	478.934	0.719	88.334	87.120	9.430	6.817	21.198	59995.667	42.416
17928.920	32.777	133.532	665.835	676.056	479.386	0.710	88.332	87.272	9.353	6.829	21.203	59995.157	42.410
17929.120	32.794	133.507	665.539	676.075	478.958	0.705	88.433	87.219	9.317	6.818	21.190	59993.605	42.388
17929.320	32.785	133.467	666.366	676.097	480.329	0.718	88.434	87.136	9.438	6.810	21.187	59992.622	42.701
17929.520	32.831	133.467	666.284	676.247	479.351	0.725	88.373	87.177	9.411	6.831	21.184	59995.054	42.937
17929.720	32.781	133.503	666.813	676.249	479.638	0.713	88.450	87.213	9.406	6.803	21.176	59991.891	43.052
17929.920	32.856	133.547	667.113	676.334	479.095	0.709	88.268	87.116	9.471	6.802	21.183	59996.754	43.024
17930.120	32.842	133.475	667.260	676.238	479.489	0.710	88.396	87.162	9.461	6.829	21.181	59993.894	43.331
17930.320	32.828	133.570	666.867	676.273	479.352	0.718	88.421	87.165	9.405	6.865	21.183	59995.091	42.520
17930.520	32.723	133.519	667.652	676.145	479.631	0.708	88.351	87.159	9.409	6.832	21.183	59993.539	42.399
17930.720	32.786	133.492	667.301	676.104	479.577	0.700	88.362	87.176	9.410	6.834	21.192	59996.539	42.547
17930.922	32.788	133.408	667.093	676.012	479.488	0.702	88.325	87.113	9.405	6.817	21.192	59995.364	42.849
17931.124	32.755	133.543	667.680	675.930	479.211	0.716	88.322	87.122	9.443	6.792	21.202	59995.867	42.811
17931.324	32.786	133.537	667.787	676.022	479.343	0.702	88.306	87.073	9.445	6.848	21.201	59998.092	42.525
17931.524	32.739	133.482	667.792	676.048	479.282	0.698	88.337	87.121	9.392	6.807	21.200	59992.903	42.504
17931.724	32.742	133.494	667.624	676.096	479.385	0.704	88.320	87.100	9.385	6.835	21.209	59995.135	42.295
17931.924	32.781	133.402	668.169	675.962	479.270	0.700	88.347	87.098	9.462	6.814	21.197	59993.657	42.926
17932.124	32.755	133.489	667.254	676.121	479.065	0.710	88.299	87.102	9.405	6.841	21.199	59996.628	42.553
17932.324	32.778	133.489	667.779	676.163	479.182	0.706	88.365	87.142	9.356	6.810	21.187	59994.226	42.465
17932.524	32.752	133.424	668.194	676.293	478.977	0.697	88.297	87.097	9.377	6.820	21.183	59995.290	42.498
17932.724	32.702	133.396	668.520	676.347	479.514	0.694	88.421	87.193	9.418	6.849	21.179	59995.423	42.070
17932.924	32.762	133.409	667.700	676.413	479.650	0.700	88.439	87.210	9.354	6.852	21.168	59990.449	42.569
17933.124	32.725	133.483	668.215	676.459	479.466	0.697	88.381	87.124	9.394	6.800	21.182	59994.426	42.580
17933.324	32.828	133.558	668.961	676.539	479.140	0.706	88.352	87.171	9.313	6.828	21.183	59993.228	43.129
