MiniLab	20-Oct-15	4:43:35 PM	

Time (sec)	T1 (C)	T2 (C)	T3 (C)	T4 (C)	T5 (C)	P1 (kPa)	P2 (kPa)	P3 (kPa)	P4 (kPa)	P5 (kPa)	Fuel Flow  (L/hr)	N1 (RPM)	Thrust (N)
22574.887	36.233	172.079	756.068	710.272	493.209	1.106	131.023	129.766	13.955	10.219	25.271	69917.288	64.265
22575.087	36.201	172.103	756.349	710.229	493.356	1.048	131.157	129.854	13.903	10.259	25.267	69915.618	64.270
22575.287	36.247	172.163	756.225	710.389	493.475	1.041	131.167	129.980	13.926	10.303	25.262	69917.931	64.402
22575.487	36.248	172.194	755.954	710.397	493.411	1.055	131.098	129.821	13.832	10.321	25.265	69917.199	64.638
22575.687	36.258	172.284	756.379	710.341	493.217	1.057	131.043	129.904	13.893	10.332	25.264	69917.347	64.561
22575.887	36.235	172.240	756.854	710.162	493.169	1.076	131.089	129.807	13.850	10.324	25.274	69914.583	64.402
22576.087	36.143	172.301	756.233	710.010	493.522	1.065	131.034	129.931	13.925	10.291	25.273	69916.482	64.144
22576.287	36.169	172.304	755.415	709.895	493.460	1.029	131.192	129.960	13.883	10.291	25.268	69916.017	64.155
22576.487	36.188	172.345	755.444	709.668	493.821	1.103	131.096	129.993	13.999	10.310	25.282	69909.232	64.172
22576.687	36.261	172.420	756.249	709.529	493.636	1.082	131.093	129.876	13.869	10.256	25.278	69907.783	64.051
22576.887	36.238	172.419	755.122	709.264	493.625	1.048	130.957	129.834	13.885	10.291	25.283	69909.786	63.793
22577.087	36.224	172.392	755.438	709.156	493.548	1.050	130.980	129.858	13.853	10.231	25.281	69909.949	64.205
22577.287	36.222	172.431	755.578	709.003	493.803	1.055	131.085	129.918	13.913	10.302	25.298	69908.663	64.106
22577.487	36.172	172.465	755.492	708.867	493.980	1.076	131.162	129.925	13.916	10.261	25.288	69905.130	64.298
22577.687	36.148	172.483	755.578	708.751	493.727	1.060	131.079	129.844	13.883	10.220	25.291	69904.553	64.533
22577.887	36.165	172.499	755.459	708.730	493.901	1.090	131.199	129.993	13.958	10.321	25.279	69905.115	65.021
22578.087	36.132	172.533	755.799	708.619	493.599	1.101	131.060	129.863	13.966	10.254	25.280	69904.694	64.226
22578.287	36.062	172.517	755.541	708.556	493.881	1.079	131.054	129.788	13.888	10.256	25.282	69905.817	64.199
22578.487	36.062	172.518	755.569	708.421	494.000	1.072	131.053	129.820	13.833	10.267	25.267	69904.391	64.276
22578.687	36.082	172.620	755.346	708.420	493.869	1.084	131.128	129.889	13.807	10.281	25.271	69906.327	64.133
22578.887	36.061	172.479	755.091	708.230	494.195	1.084	131.277	130.086	13.915	10.250	25.259	69904.746	64.325
22579.087	36.043	172.614	754.469	708.333	494.177	1.087	131.381	130.210	13.948	10.250	25.271	69904.590	64.862
22579.287	36.090	172.590	755.358	708.409	494.140	1.044	131.529	130.374	13.884	10.281	25.255	69905.337	64.402
22579.487	36.034	172.609	754.773	708.367	494.024	1.057	131.529	130.353	14.061	10.307	25.266	69905.041	64.824
22579.687	35.990	172.569	754.703	708.388	494.266	1.070	131.478	130.351	13.943	10.290	25.256	69908.670	64.605
22579.887	36.034	172.636	754.565	708.379	493.887	1.065	131.304	130.166	13.909	10.241	25.258	69909.372	64.517
22580.087	36.010	172.581	755.037	708.310	493.899	1.081	131.564	130.198	13.914	10.288	25.276	69911.575	64.879
22580.287	35.981	172.652	754.959	708.399	493.614	1.084	131.402	130.383	13.889	10.372	25.272	69916.882	64.259
22580.487	35.932	172.640	754.687	708.360	493.740	1.060	131.524	130.267	14.003	10.280	25.273	69917.059	64.259
22580.687	35.914	172.571	754.635	708.179	493.885	1.054	131.609	130.463	13.959	10.294	25.272	69919.683	64.824
22580.887	35.868	172.595	753.793	707.980	494.020	1.055	131.485	130.163	13.896	10.311	25.277	69920.511	64.528
22581.087	35.889	172.656	753.135	707.813	493.600	1.101	131.553	130.503	13.851	10.315	25.285	69924.723	64.418
22581.287	35.883	172.717	753.835	707.703	493.558	1.091	131.578	130.312	13.867	10.314	25.277	69927.332	64.270
22581.487	35.842	172.581	753.266	707.484	493.947	1.104	131.293	130.136	13.924	10.280	25.284	69924.317	64.731
22581.687	35.868	172.676	753.019	707.383	493.529	1.111	131.251	130.058	13.950	10.270	25.270	69928.988	63.969
22581.887	35.819	172.623	753.035	707.228	494.095	1.081	131.285	129.978	13.930	10.277	25.285	69926.372	64.769
22582.090	35.832	172.700	753.415	707.072	493.746	1.092	131.171	130.075	13.851	10.308	25.275	69925.588	64.544
22582.291	35.783	172.627	752.767	706.997	493.730	1.074	131.168	129.905	13.885	10.282	25.269	69927.140	64.276
22582.494	35.814	172.710	753.128	706.840	493.934	1.067	131.033	129.818	13.851	10.260	25.266	69929.269	63.793
22582.694	35.849	172.754	752.847	706.699	493.601	1.094	131.121	129.866	13.933	10.293	25.252	69920.902	64.177
22582.894	35.803	172.635	752.805	706.428	493.448	1.075	131.019	129.797	13.853	10.262	25.267	69918.434	64.830
22583.094	35.805	172.765	751.794	706.308	493.541	1.098	130.870	129.636	13.785	10.312	25.261	69921.944	63.947
22583.294	35.825	172.743	752.412	706.206	493.929	1.078	130.755	129.545	13.785	10.287	25.250	69915.307	64.095
22583.494	35.845	172.715	752.146	706.121	494.122	1.088	130.751	129.581	13.877	10.268	25.250	69915.086	64.682
22583.694	35.903	172.745	752.792	706.080	494.017	1.099	130.582	129.415	13.896	10.239	25.258	69913.371	64.544
22583.894	35.843	172.767	751.889	706.062	492.812	1.101	130.696	129.485	13.839	10.227	25.265	69910.873	64.396
22584.094	35.834	172.687	751.482	706.022	493.565	1.095	130.744	129.564	13.857	10.302	25.275	69909.306	64.583
22584.294	35.867	172.762	752.001	706.120	493.618	1.091	130.705	129.438	13.778	10.280	25.274	69901.309	64.402
22584.494	35.771	172.706	752.447	706.141	493.767	1.105	130.698	129.561	13.861	10.242	25.267	69901.760	63.980
22584.694	35.839	172.827	752.464	706.308	493.795	1.088	130.734	129.499	13.749	10.247	25.292	69900.067	63.936
22584.894	35.895	172.807	752.152	706.264	493.573	1.070	130.984	129.792	13.930	10.238	25.284	69876.342	65.027
22585.094	35.858	172.807	752.582	706.366	493.140	1.079	131.066	129.785	13.807	10.274	25.284	69880.474	64.533
22585.294	35.902	172.827	752.975	706.360	494.016	1.077	130.967	129.757	13.859	10.265	25.272	69880.318	64.177
22585.494	35.863	172.853	752.682	706.490	493.412	1.084	131.014	129.689	13.831	10.252	25.275	69880.777	64.062
22585.694	35.923	172.810	753.193	706.419	493.967	1.081	130.961	129.774	13.954	10.249	25.283	69876.867	64.654
22585.894	35.898	172.828	752.742	706.375	493.691	1.186	130.982	129.842	13.997	10.265	25.274	69877.754	64.407
22586.097	35.927	172.850	752.820	706.414	494.532	1.169	131.138	129.901	13.907	10.255	25.271	69877.665	64.248
22586.297	35.926	172.809	752.553	706.467	493.869	1.164	131.461	130.308	13.915	10.281	25.258	69876.401	64.446
22586.497	35.931	172.816	752.718	706.444	494.257	1.112	131.411	130.284	13.927	10.340	25.254	69874.553	64.259
22586.697	35.925	172.867	752.636	706.407	494.442	1.145	131.498	130.233	13.877	10.304	25.266	69873.253	64.259
22586.897	35.966	172.928	752.166	706.303	493.969	1.103	131.457	130.222	13.864	10.296	25.255	69866.238	64.078
22587.097	35.963	172.960	752.565	706.216	494.343	1.084	131.352	130.204	13.968	10.311	25.258	69865.189	64.281
22587.297	35.930	172.888	752.113	706.094	493.631	1.089	131.378	130.216	13.993	10.246	25.250	69863.851	64.446
22587.497	35.930	172.903	751.955	706.120	494.064	1.094	131.064	129.821	13.942	10.277	25.264	69859.269	64.221
22587.697	36.033	172.921	752.110	706.164	494.196	1.106	131.157	130.017	13.853	10.277	25.261	69858.626	64.572
22587.897	36.005	172.870	751.992	706.250	493.594	1.069	130.902	129.597	13.851	10.235	25.266	69823.910	63.574
22588.097	36.016	172.886	752.604	706.319	493.957	1.099	131.064	129.917	13.877	10.308	25.268	69813.504	64.983
22588.297	36.001	172.914	752.552	706.475	493.983	1.085	131.251	130.026	13.888	10.273	25.261	69815.558	64.512
22588.497	36.018	172.849	752.100	706.561	494.201	1.091	131.147	129.985	13.919	10.296	25.284	69818.929	64.588
22588.697	35.953	172.922	752.443	706.773	494.194	1.083	131.455	130.311	13.935	10.278	25.281	69819.727	64.709
22588.897	35.956	172.920	752.713	706.815	493.769	1.090	131.186	130.109	13.896	10.327	25.282	69820.895	64.753
22589.096	35.952	172.860	752.583	706.990	493.804	1.071	131.344	130.141	13.893	10.278	25.277	69828.884	63.826
22589.296	35.942	172.902	752.738	707.069	493.532	1.088	131.337	130.067	13.885	10.224	25.282	69827.495	64.265
22589.496	35.869	172.928	752.560	707.297	493.394	1.114	131.470	130.289	13.888	10.332	25.274	69837.628	64.248
22589.696	35.849	172.926	752.765	707.514	494.204	1.060	131.460	130.199	13.866	10.252	25.272	69836.423	63.897
22589.896	35.896	172.927	753.262	707.533	494.082	1.070	131.338	130.188	13.973	10.297	25.262	69837.014	64.605
22590.096	35.857	172.826	753.122	707.501	493.882	1.085	131.434	130.222	13.921	10.345	25.269	69874.553	64.194
22590.296	35.845	172.867	752.758	707.572	493.967	1.082	131.278	130.060	13.870	10.294	25.259	69875.529	63.793
22590.496	35.838	172.922	752.763	707.639	493.672	1.105	131.299	130.071	13.860	10.322	25.253	69876.150	63.623
22590.696	35.848	172.909	752.978	707.734	493.609	1.101	131.331	130.182	13.891	10.283	25.253	69877.554	64.166
22590.896	35.828	172.890	753.256	707.768	493.965	1.093	131.428	130.166	13.878	10.342	25.241	69875.322	64.100
22591.096	35.850	172.909	753.013	707.644	493.927	1.113	131.359	130.191	13.902	10.318	25.261	69874.827	64.331
22591.296	35.834	172.950	753.063	707.601	494.053	1.092	131.419	130.177	13.934	10.319	25.255	69874.612	64.100
22591.496	35.880	172.879	752.218	707.528	493.521	1.148	131.345	130.143	13.963	10.257	25.257	69876.091	64.725
22591.696	35.812	172.890	752.488	707.336	493.626	1.133	131.482	130.296	13.839	10.280	25.262	69875.071	64.528
22591.896	35.839	172.958	752.067	707.420	493.333	1.082	131.401	130.162	13.858	10.325	25.266	69878.064	63.821
22592.096	35.830	172.998	751.550	707.472	493.598	1.082	131.438	130.244	13.931	10.274	25.277	69871.937	64.627
22592.296	35.811	172.916	752.077	707.484	493.908	1.105	131.573	130.333	13.913	10.293	25.280	69869.003	65.115
22592.496	35.868	172.889	751.982	707.478	494.149	1.057	131.655	130.521	13.916	10.339	25.274	69869.624	64.544
22592.699	35.873	172.989	751.383	707.407	493.941	1.078	131.520	130.478	13.925	10.282	25.275	69868.840	64.649
22592.899	35.886	173.010	751.723	707.400	494.109	1.106	131.452	130.247	13.862	10.251	25.277	69867.894	64.248
22593.099	35.859	173.000	751.719	707.287	493.538	1.107	131.403	130.177	13.907	10.311	25.285	69863.112	64.046
22593.299	35.865	173.022	751.492	707.261	493.610	1.093	131.282	130.039	13.920	10.324	25.273	69860.961	64.259
22593.499	35.824	172.953	751.425	707.167	494.091	1.089	131.152	130.005	13.861	10.207	25.271	69857.680	64.638
22593.699	35.803	172.980	751.789	707.189	493.418	1.096	131.143	129.851	13.842	10.260	25.257	69854.198	63.908
22593.902	35.853	172.971	752.624	707.156	493.717	1.097	131.107	129.794	13.899	10.292	25.262	69854.006	63.426
22594.105	35.921	173.066	751.979	706.970	493.688	1.081	131.035	129.797	13.837	10.227	25.257	69851.057	64.671
22594.305	35.832	173.001	751.945	706.897	493.968	1.060	130.959	129.731	13.847	10.243	25.259	69846.955	64.078
22594.505	35.845	172.933	751.721	706.926	493.889	1.079	131.050	129.852	13.859	10.271	25.249	69848.382	63.996
22594.705	35.893	172.988	752.124	706.912	494.029	1.096	130.959	129.845	13.902	10.282	25.243	69845.181	64.391
22594.905	35.906	172.973	751.739	706.928	493.286	1.069	131.004	129.750	13.780	10.237	25.256	69846.815	64.742
22595.105	35.872	172.975	750.970	707.014	493.746	1.092	131.040	129.884	13.904	10.291	25.252	69848.892	64.402
22595.305	35.905	172.975	751.484	707.117	493.633	1.077	131.081	129.806	13.811	10.290	25.255	69854.553	63.777
22595.505	35.886	172.974	751.580	707.160	493.901	1.086	130.991	129.783	13.803	10.305	25.253	69855.329	63.919
22595.705	35.892	172.956	751.647	707.147	493.763	1.087	130.974	129.733	13.831	10.228	25.256	69852.846	64.215
22595.905	35.938	172.990	751.569	707.249	494.176	1.079	130.905	129.684	13.903	10.291	25.273	69854.139	64.336
22596.105	35.968	173.009	752.152	707.247	493.292	1.063	130.844	129.633	13.876	10.252	25.274	69852.062	64.873
22596.305	35.950	173.039	751.902	707.357	493.613	1.077	130.779	129.571	13.788	10.238	25.277	69853.541	64.237
22596.505	36.028	173.028	752.368	707.408	493.414	1.059	130.965	129.651	13.804	10.275	25.267	69853.681	64.205
22596.705	36.015	173.039	751.910	707.504	493.186	1.063	130.823	129.580	13.968	10.245	25.262	69855.470	64.166
22596.905	36.010	173.080	752.645	707.502	493.778	1.104	130.784	129.585	13.936	10.241	25.268	69854.221	63.936
22597.105	36.039	173.037	753.066	707.515	493.638	1.092	130.711	129.441	13.925	10.253	25.262	69853.644	63.919
22597.305	36.035	173.043	752.305	707.541	493.714	1.070	130.727	129.440	13.896	10.220	25.260	69856.357	63.771
22597.505	36.076	173.066	751.889	707.549	493.839	1.086	130.726	129.450	13.850	10.260	25.254	69853.134	63.930
22597.705	36.073	173.055	752.181	707.441	493.786	1.077	130.745	129.422	13.809	10.262	25.256	69853.016	63.651
22597.905	36.113	173.053	751.364	707.353	493.908	1.088	130.527	129.363	13.856	10.209	25.252	69850.533	63.919
22598.105	36.191	173.050	752.079	707.279	494.046	1.070	130.644	129.458	13.793	10.252	25.246	69849.239	64.725
22598.305	36.193	173.080	752.085	707.377	493.569	1.075	130.747	129.485	13.814	10.302	25.238	69851.878	64.374
22598.505	36.237	173.139	751.521	707.599	493.781	1.081	130.685	129.417	13.797	10.271	25.241	69856.076	64.161
22598.705	36.251	173.094	752.074	707.585	494.043	1.071	130.662	129.370	13.876	10.242	25.258	69851.663	64.473
22598.905	36.263	173.055	751.574	707.781	493.337	1.059	130.738	129.522	13.810	10.290	25.259	69854.657	64.374
22599.105	36.335	173.086	752.232	707.897	493.779	1.064	130.704	129.458	13.724	10.236	25.265	69856.320	63.925
22599.305	36.364	173.081	751.986	707.984	493.652	1.065	130.629	129.432	13.830	10.215	25.261	69855.898	64.056
22599.505	36.425	173.165	752.553	708.132	493.137	1.042	130.642	129.334	13.906	10.223	25.264	69862.816	64.418
22599.706	36.427	173.138	751.868	708.087	493.791	1.062	130.846	129.568	13.909	10.188	25.272	69861.774	64.484
22599.943	36.579	173.162	751.754	708.164	494.071	1.080	130.804	129.576	13.887	10.183	25.264	69867.835	64.451
22600.144	36.658	173.213	752.745	708.243	494.268	1.078	130.858	129.629	13.877	10.281	25.268	69865.388	64.407
22600.344	36.664	173.135	751.991	708.268	494.057	1.072	130.755	129.558	13.843	10.214	25.266	69866.416	64.462
22600.544	36.770	173.170	752.526	708.333	494.256	1.077	130.915	129.733	13.818	10.263	25.268	69877.244	64.035
22600.744	36.812	173.215	752.492	708.323	493.980	1.071	130.843	129.657	13.931	10.229	25.278	69874.265	64.709
22600.944	36.788	173.137	751.946	708.252	493.733	1.079	130.776	129.571	13.826	10.220	25.268	69880.910	64.495
22601.144	36.796	173.139	751.911	708.173	494.169	1.107	130.898	129.556	13.804	10.229	25.274	69880.540	64.501
22601.344	36.832	173.099	751.653	708.122	494.338	1.090	130.839	129.606	13.845	10.216	25.269	69879.742	64.484
22601.544	36.926	173.166	751.910	708.202	494.090	1.081	130.787	129.544	13.840	10.190	25.263	69899.831	64.292
22601.744	36.927	173.219	752.097	708.311	494.168	1.088	130.689	129.368	13.774	10.248	25.266	69900.887	64.089
22601.944	36.975	173.223	752.269	708.396	493.867	1.090	130.826	129.638	13.917	10.172	25.260	69899.653	64.067
22602.144	36.880	173.166	751.578	708.451	493.339	1.098	130.773	129.640	13.840	10.251	25.252	69899.742	63.892
22602.344	36.915	173.106	751.817	708.415	494.139	1.099	130.883	129.736	13.810	10.239	25.242	69896.268	65.126
22602.544	36.881	173.207	751.967	708.477	494.045	1.092	130.949	129.580	13.929	10.278	25.246	69894.731	64.259
22602.744	36.918	173.252	751.662	708.535	493.637	1.103	130.926	129.715	13.882	10.274	25.254	69896.335	64.172
22602.944	36.843	173.212	752.165	708.548	494.880	1.103	130.922	129.600	13.847	10.223	25.243	69896.800	64.139
22603.144	36.859	173.255	752.337	708.462	493.738	1.115	130.956	129.691	13.873	10.274	25.243	69891.641	64.594
22603.344	36.837	173.232	752.379	708.331	493.706	1.136	131.001	129.825	13.891	10.278	25.243	69893.075	65.010
22603.544	36.770	173.240	752.169	708.222	493.369	1.101	130.960	129.743	13.997	10.294	25.263	69889.210	64.259
22603.744	36.708	173.193	752.196	708.076	493.761	1.100	130.920	129.604	13.840	10.250	25.259	69886.586	64.128
22603.944	36.746	173.312	751.634	708.004	493.799	1.078	130.917	129.727	13.961	10.270	25.270	69887.983	64.539
22604.144	36.653	173.230	751.573	707.845	494.117	1.079	130.952	129.773	13.895	10.253	25.262	69882.122	64.517
22604.344	36.604	173.329	751.497	707.834	493.719	1.081	131.031	129.716	13.868	10.223	25.263	69884.302	64.122
22604.544	36.589	173.263	751.248	707.679	494.342	1.070	131.113	129.796	13.953	10.226	25.274	69882.151	64.106
22604.744	36.625	173.270	751.897	707.596	493.892	1.078	131.116	129.784	13.870	10.240	25.266	69875.248	64.649
22604.944	36.548	173.317	751.596	707.594	494.009	1.059	131.018	129.680	13.876	10.284	25.266	69878.618	64.369
22605.144	36.589	173.286	751.768	707.466	494.317	1.062	131.031	129.765	13.882	10.292	25.257	69874.383	64.523
22605.344	36.549	173.342	752.184	707.460	493.780	1.049	130.945	129.732	13.874	10.203	25.263	69879.054	63.881
22605.544	36.613	173.327	751.657	707.263	493.902	1.067	130.944	129.758	13.975	10.175	25.251	69874.006	64.506
22605.744	36.538	173.289	751.734	707.165	493.804	1.063	131.020	129.839	14.016	10.222	25.250	69873.349	64.270
22605.944	36.562	173.346	751.193	707.049	494.067	1.070	131.045	129.788	13.837	10.334	25.237	69874.561	64.364
22606.144	36.512	173.302	752.240	706.865	494.169	1.073	131.005	129.788	13.931	10.224	25.252	69872.329	63.974
22606.344	36.523	173.346	751.582	706.800	493.481	1.084	131.041	129.867	13.876	10.267	25.248	69873.570	64.172
22606.543	36.503	173.281	750.884	706.748	494.402	1.091	131.099	129.867	13.835	10.270	25.244	69873.031	64.276
22606.743	36.543	173.359	751.479	706.628	494.453	1.075	131.119	129.997	13.964	10.312	25.239	69872.935	64.649
22606.946	36.534	173.300	751.549	706.616	494.370	1.091	131.082	129.981	13.842	10.279	25.234	69873.016	64.753
22607.146	36.551	173.350	751.562	706.734	493.884	1.090	131.206	129.965	14.022	10.247	25.258	69873.585	64.594
22607.346	36.566	173.375	751.255	706.746	493.706	1.070	131.147	129.876	13.842	10.277	25.253	69874.132	64.451
22607.546	36.564	173.266	751.326	706.660	494.061	1.074	131.207	129.942	13.870	10.263	25.264	69872.240	64.632
22607.746	36.469	173.257	750.905	706.595	493.882	1.077	131.159	130.019	13.815	10.323	25.263	69875.507	64.095
22607.946	36.471	173.316	751.265	706.643	493.677	1.046	131.332	130.078	13.914	10.251	25.266	69876.386	63.837
22608.146	36.495	173.307	751.178	706.648	493.520	1.065	131.319	130.073	13.987	10.332	25.273	69877.931	64.523
22608.346	36.428	173.276	751.190	706.718	493.631	1.068	131.324	130.025	13.849	10.266	25.266	69881.678	64.725
22608.546	36.435	173.299	751.352	706.648	493.612	1.070	131.428	130.243	13.929	10.269	25.264	69881.434	64.385
22608.746	36.401	173.259	751.265	706.599	493.551	1.061	131.532	130.254	13.899	10.289	25.250	69883.740	64.583
22608.946	36.408	173.289	751.508	706.541	493.856	1.080	131.504	130.220	13.882	10.301	25.267	69882.336	64.890
22609.146	36.413	173.265	751.452	706.412	493.318	1.064	131.639	130.433	13.936	10.328	25.251	69880.244	65.268
22609.346	36.382	173.255	750.303	706.374	493.925	1.094	131.488	130.200	13.891	10.242	25.254	69886.305	64.698
22609.546	36.388	173.218	750.832	706.185	493.812	1.091	131.494	130.397	13.909	10.293	25.239	69885.573	65.082
22609.746	36.361	173.260	750.399	706.154	493.781	1.084	131.478	130.255	13.961	10.322	25.236	69885.625	65.318
22609.946	36.368	173.289	750.709	706.144	493.708	1.075	131.740	130.561	13.943	10.265	25.249	69884.139	64.934
22610.146	36.374	173.188	750.964	706.020	493.703	1.098	131.698	130.427	13.907	10.238	25.245	69881.708	65.054
22610.346	36.331	173.222	750.551	706.012	493.547	1.085	131.720	130.480	13.909	10.354	25.248	69882.610	64.638
22610.546	36.352	173.214	750.405	705.938	493.232	1.081	131.622	130.513	13.934	10.340	25.244	69880.533	65.811
