MiniLab	10-Dec-12	5:22:56 AM	

Time (sec)	T1 (C)	T2 (C)	T3 (C)	T4 (C)	T5 (C)	P1 (kPa)	P2 (kPa)	P3 (kPa)	P4 (kPa)	P5 (kPa)	Fuel Flow  (L/hr)	N1 (RPM)	Thrust (N)
16645.324	25.243	123.083	586.978	568.994	584.487	0.603	81.472	80.737	8.829	0.727	17.419	57505.525	10.819
16645.539	25.229	123.120	586.736	568.993	584.473	0.602	81.417	80.801	8.969	0.732	17.426	57504.926	10.720
16645.750	25.233	123.095	587.108	569.002	584.686	0.590	81.494	80.835	8.889	0.733	17.410	57510.514	10.610
16645.958	25.235	123.126	587.150	569.095	584.862	0.583	81.469	80.833	8.961	0.724	17.414	57510.928	10.572
16646.167	25.230	123.148	587.241	569.039	584.413	0.585	81.499	80.815	8.849	0.743	17.417	57510.595	10.835
16646.367	25.221	123.152	587.890	569.004	584.530	0.565	81.543	80.846	8.914	0.738	17.420	57519.768	11.065
16646.567	25.200	123.168	587.900	568.982	584.545	0.567	81.443	80.803	8.922	0.733	17.425	57519.110	10.490
16646.772	25.212	123.290	587.570	568.983	583.794	0.579	81.578	80.925	8.879	0.731	17.418	57521.054	10.451
16646.978	25.225	123.271	588.161	568.832	584.934	0.584	81.595	80.844	8.921	0.726	17.418	57523.153	10.309
16647.187	25.188	123.233	587.739	568.818	584.503	0.584	81.469	80.771	8.911	0.742	17.428	57522.628	10.742
16647.387	25.205	123.291	588.270	568.657	584.010	0.600	81.463	80.819	8.869	0.744	17.422	57522.510	10.435
16647.587	25.205	123.350	588.296	568.586	584.375	0.594	81.466	80.777	8.855	0.729	17.405	57524.727	10.939
16647.791	25.219	123.373	587.648	568.474	584.553	0.589	81.509	80.756	8.894	0.736	17.429	57522.317	11.032
16647.999	25.212	123.362	588.111	568.406	584.208	0.575	81.400	80.761	8.887	0.731	17.414	57522.864	10.693
16648.210	25.213	123.343	587.501	568.403	584.993	0.592	81.429	80.749	8.896	0.734	17.413	57523.094	10.649
16648.418	25.209	123.401	587.951	568.454	584.375	0.587	81.414	80.738	8.876	0.745	17.431	57519.967	10.819
16648.627	25.236	123.397	587.349	568.395	584.414	0.594	81.397	80.725	8.855	0.738	17.424	57519.487	10.846
16648.836	25.230	123.461	588.404	568.383	585.119	0.583	81.440	80.707	8.866	0.735	17.410	57520.743	10.660
16649.037	25.237	123.482	588.172	568.407	584.767	0.587	81.423	80.656	8.882	0.734	17.424	57520.159	10.884
16649.238	25.183	123.451	588.161	568.513	584.508	0.590	81.367	80.730	8.873	0.727	17.422	57520.418	10.451
16649.441	25.200	123.517	588.427	568.555	584.316	0.583	81.350	80.631	8.820	0.728	17.417	57519.679	10.539
16649.647	25.190	123.519	588.602	568.519	584.731	0.575	81.414	80.735	8.841	0.727	17.421	57520.315	10.649
16649.856	25.198	123.563	587.652	568.613	585.136	0.574	81.430	80.730	8.902	0.741	17.415	57520.048	10.879
16650.066	25.197	123.582	588.483	568.595	584.269	0.587	81.349	80.729	8.984	0.725	17.414	57519.553	10.468
16650.266	25.200	123.625	588.181	568.600	584.298	0.589	81.407	80.686	8.841	0.719	17.430	57520.677	10.232
16650.467	25.207	123.569	588.147	568.625	585.027	0.589	81.257	80.623	8.849	0.745	17.417	57519.383	10.320
16650.671	25.195	123.583	588.281	568.623	584.625	0.581	81.327	80.683	8.916	0.740	17.419	57518.947	10.276
16650.878	25.214	123.635	588.458	568.555	584.962	0.586	81.361	80.743	8.893	0.733	17.429	57520.204	10.358
16651.087	25.214	123.605	588.485	568.472	584.812	0.593	81.396	80.672	8.909	0.725	17.416	57519.043	10.199
16651.296	25.235	123.669	588.480	568.496	584.661	0.589	81.384	80.668	8.828	0.725	17.409	57520.218	10.380
16651.507	25.260	123.714	588.411	568.586	585.033	0.590	81.420	80.698	8.881	0.733	17.421	57523.123	10.682
16651.716	25.259	123.754	588.369	568.520	583.489	0.576	81.428	80.749	8.894	0.741	17.414	57522.643	10.429
16651.916	25.254	123.764	588.701	568.427	585.291	0.578	81.378	80.748	8.934	0.730	17.413	57522.665	10.627
16652.117	25.258	123.754	588.517	568.306	584.812	0.593	81.423	80.692	8.917	0.731	17.432	57523.049	10.786
16652.338	25.302	123.773	588.844	568.090	584.696	0.584	81.439	80.698	8.890	0.736	17.407	57521.741	10.802
16652.552	25.260	123.843	588.107	567.912	584.293	0.582	81.400	80.715	8.817	0.742	17.412	57527.550	10.270
16652.752	25.234	123.779	588.082	567.807	584.679	0.591	81.364	80.719	8.869	0.731	17.429	57527.454	10.687
16652.953	25.275	123.809	588.107	567.720	585.165	0.588	81.341	80.636	8.847	0.736	17.416	57528.674	11.038
16653.159	25.273	123.866	587.997	567.718	584.728	0.594	81.393	80.706	8.916	0.727	17.403	57528.001	10.144
16653.367	25.268	123.895	587.962	567.672	584.818	0.586	81.425	80.742	8.918	0.733	17.424	57528.541	10.747
16653.577	25.309	123.954	588.245	567.777	584.210	0.595	81.323	80.650	8.919	0.738	17.419	57530.470	10.693
16653.786	25.301	123.901	588.414	567.692	585.061	0.586	81.390	80.730	8.867	0.734	17.417	57530.241	10.501
16653.986	25.306	123.999	587.845	567.712	584.641	0.588	81.458	80.755	8.889	0.737	17.429	57530.728	10.594
16654.187	25.308	124.026	587.835	567.819	584.692	0.579	81.430	80.702	8.865	0.748	17.411	57534.764	10.468
16654.410	25.315	123.964	587.830	567.828	584.854	0.591	81.454	80.703	8.875	0.745	17.420	57533.493	10.873
16654.621	25.325	124.041	588.205	567.808	584.974	0.589	81.434	80.759	8.894	0.738	17.429	57533.434	10.418
16654.835	25.329	124.046	587.681	567.736	584.760	0.587	81.403	80.705	8.884	0.744	17.420	57533.604	10.906
16655.035	25.332	123.985	588.279	567.669	585.101	0.598	81.474	80.767	8.805	0.740	17.413	57533.352	10.638
16655.236	25.334	124.010	588.339	567.701	584.777	0.593	81.473	80.750	8.856	0.758	17.422	57536.989	10.912
16655.460	25.347	124.091	588.016	567.719	584.736	0.591	81.439	80.738	8.882	0.753	17.424	57534.963	11.115
16655.669	25.336	124.116	588.468	567.843	584.802	0.588	81.344	80.780	8.879	0.740	17.406	57538.134	10.725
16655.881	25.354	124.154	588.173	567.779	585.080	0.588	81.366	80.724	8.920	0.736	17.421	57538.038	10.555
16656.081	25.364	124.115	588.081	567.825	584.491	0.585	81.466	80.758	8.893	0.749	17.419	57537.713	10.813
16656.282	25.389	124.145	588.473	567.762	585.056	0.582	81.409	80.709	8.897	0.747	17.399	57541.305	10.895
16656.489	25.388	124.178	587.993	567.772	584.807	0.586	81.399	80.655	8.875	0.752	17.426	57542.510	10.709
16656.698	25.398	124.199	588.228	567.790	584.920	0.588	81.436	80.731	8.801	0.751	17.431	57539.583	11.065
16656.907	25.411	124.207	587.705	567.817	584.823	0.587	81.382	80.701	8.739	0.742	17.416	57539.317	10.325
16657.107	25.398	124.212	588.458	567.871	584.680	0.586	81.469	80.757	8.867	0.747	17.425	57540.085	10.473
16657.323	25.388	124.263	588.238	567.897	584.887	0.586	81.411	80.775	8.865	0.740	17.425	57538.851	11.296
16657.536	25.395	124.254	588.823	567.976	584.637	0.587	81.415	80.683	8.956	0.744	17.403	57538.511	10.950
16657.746	25.413	124.273	588.386	568.076	585.044	0.588	81.410	80.737	8.904	0.750	17.409	57538.482	10.978
16657.958	25.404	124.266	589.251	568.082	584.880	0.581	81.441	80.765	8.807	0.742	17.426	57538.585	10.852
16658.167	25.383	124.278	588.514	568.188	584.905	0.584	81.446	80.740	8.916	0.746	17.416	57539.176	10.468
16658.377	25.421	124.306	588.656	568.188	584.610	0.583	81.427	80.734	8.776	0.739	17.413	57536.981	10.353
16658.582	25.357	124.255	588.355	568.245	584.421	0.597	81.501	80.754	8.849	0.730	17.419	57539.856	10.682
16658.795	25.407	124.296	588.676	568.408	584.949	0.595	81.416	80.730	8.838	0.750	17.425	57539.472	10.945
16659.007	25.404	124.355	588.575	568.433	585.056	0.592	81.418	80.742	8.826	0.726	17.414	57538.740	10.528
16659.217	25.413	124.409	588.224	568.472	584.531	0.593	81.475	80.754	8.895	0.737	17.417	57538.149	11.296
16659.427	25.414	124.403	588.298	568.580	584.823	0.593	81.365	80.657	8.862	0.748	17.412	57541.837	10.939
16659.637	25.410	124.359	587.929	568.649	584.442	0.594	81.436	80.723	8.869	0.741	17.416	57542.059	11.038
16659.846	25.380	124.377	587.930	568.746	584.235	0.594	81.427	80.721	8.857	0.744	17.426	57542.502	10.649
16660.057	25.409	124.465	587.462	568.786	584.914	0.592	81.337	80.658	8.870	0.752	17.422	57541.682	10.649
16660.267	25.432	124.408	587.366	568.909	584.491	0.592	81.411	80.713	8.857	0.746	17.416	57542.901	11.115
16660.477	25.413	124.474	587.354	568.970	584.223	0.595	81.317	80.704	8.799	0.746	17.419	57542.162	10.819
16660.688	25.428	124.398	587.360	569.135	584.807	0.589	81.293	80.702	8.919	0.734	17.415	57539.849	10.906
16660.898	25.434	124.464	587.670	569.199	583.862	0.590	81.284	80.612	8.853	0.746	17.410	57538.681	11.032
16661.107	25.433	124.510	587.651	569.095	584.766	0.591	81.408	80.670	8.821	0.724	17.431	57539.856	10.517
16661.318	25.434	124.477	587.011	569.028	584.278	0.597	81.317	80.671	8.884	0.740	17.415	57539.221	10.577
16661.528	25.468	124.487	587.487	568.945	583.979	0.586	81.355	80.658	8.873	0.742	17.411	57538.940	11.032
16661.737	25.454	124.525	587.107	568.949	584.319	0.595	81.232	80.592	8.887	0.739	17.432	57538.755	10.660
16661.948	25.488	124.489	587.608	568.823	584.341	0.594	81.310	80.533	8.769	0.743	17.421	57537.735	10.610
16662.153	25.481	124.514	587.542	568.633	583.875	0.589	81.294	80.572	8.849	0.747	17.419	57537.972	11.131
16662.353	25.466	124.504	587.840	568.716	584.582	0.588	81.369	80.646	8.768	0.736	17.435	57537.107	11.049
16662.572	25.487	124.512	587.242	568.770	584.873	0.586	81.246	80.573	8.811	0.733	17.415	57534.742	10.671
16662.786	25.500	124.549	587.373	568.922	584.468	0.594	81.193	80.540	8.820	0.729	17.416	57535.725	10.709
16662.996	25.493	124.607	587.886	568.948	584.157	0.587	81.262	80.593	8.849	0.732	17.425	57533.478	10.687
16663.206	25.513	124.598	587.500	568.933	584.160	0.584	81.255	80.604	8.933	0.742	17.431	57533.360	10.862
16663.412	25.509	124.613	587.980	568.835	584.492	0.583	81.358	80.636	8.885	0.742	17.417	57532.399	11.104
16663.626	25.474	124.619	587.794	568.658	584.275	0.595	81.342	80.679	8.880	0.744	17.430	57531.726	10.649
16663.837	25.495	124.652	587.863	568.562	584.363	0.592	81.225	80.565	8.851	0.737	17.428	57530.292	10.852
16664.047	25.514	124.701	588.088	568.601	584.460	0.590	81.347	80.627	8.817	0.738	17.407	57532.362	11.098
16664.257	25.501	124.630	587.925	568.587	584.514	0.587	81.317	80.718	8.851	0.756	17.423	57531.771	10.797
16664.468	25.476	124.678	587.817	568.572	584.580	0.597	81.375	80.563	8.778	0.758	17.425	57530.514	10.714
16664.677	25.496	124.719	588.091	568.595	583.943	0.588	81.372	80.608	8.829	0.747	17.406	57533.559	10.457
16664.887	25.523	124.683	588.096	568.677	584.582	0.587	81.407	80.693	8.906	0.730	17.422	57532.214	10.989
16665.094	25.501	124.705	588.004	568.697	584.718	0.596	81.357	80.644	8.865	0.740	17.435	57530.300	10.747
16665.303	25.537	124.697	588.133	568.667	584.968	0.588	81.384	80.681	8.819	0.744	17.411	57531.268	10.791
16665.516	25.530	124.712	587.664	568.698	584.536	0.588	81.340	80.648	8.920	0.754	17.416	57530.440	10.550
16665.726	25.577	124.806	588.110	568.742	584.632	0.595	81.257	80.661	8.851	0.740	17.419	57528.992	10.769
16665.936	25.584	124.797	587.852	568.780	585.073	0.599	81.240	80.538	8.873	0.750	17.412	57528.873	11.126
16666.147	25.572	124.834	587.634	568.836	584.607	0.596	81.360	80.655	8.832	0.748	17.415	57525.510	11.011
16666.356	25.580	124.777	587.853	568.831	584.017	0.597	81.262	80.629	8.944	0.745	17.423	57525.481	11.005
16666.565	25.580	124.808	587.137	568.795	584.640	0.583	81.298	80.537	8.985	0.745	17.409	57527.439	11.219
16666.776	25.563	124.899	587.795	568.689	584.659	0.589	81.329	80.631	8.806	0.746	17.411	57523.796	10.561
16666.987	25.567	124.809	588.093	568.611	584.355	0.586	81.351	80.643	8.889	0.736	17.420	57522.739	10.709
16667.197	25.569	124.883	587.740	568.580	584.243	0.581	81.204	80.508	8.882	0.736	17.407	57519.450	10.303
16667.406	25.570	124.884	588.310	568.468	583.686	0.583	81.118	80.391	8.954	0.742	17.410	57518.807	10.418
16667.615	25.562	124.831	587.559	568.368	584.467	0.582	81.242	80.503	8.836	0.728	17.425	57520.255	10.923
16667.826	25.583	124.920	587.315	568.274	584.119	0.576	81.260	80.536	8.821	0.737	17.426	57513.737	10.862
16668.031	25.599	124.913	587.002	568.151	583.865	0.578	81.284	80.551	8.910	0.749	17.408	57514.113	10.950
16668.244	25.614	124.925	586.722	568.134	584.279	0.597	81.186	80.511	8.835	0.750	17.421	57511.423	11.060
16668.455	25.618	124.996	587.339	568.177	583.998	0.572	81.203	80.539	8.866	0.744	17.421	57511.371	10.528
16668.666	25.655	124.958	587.321	568.160	584.493	0.584	81.232	80.567	8.886	0.757	17.403	57510.884	10.983
16668.877	25.618	124.960	586.892	568.239	584.477	0.572	81.285	80.561	8.796	0.739	17.412	57508.119	10.846
16669.077	25.627	124.948	587.142	568.370	584.789	0.590	81.254	80.596	8.902	0.743	17.415	57508.430	11.093
16669.278	25.647	124.951	587.135	568.461	583.948	0.582	81.179	80.507	8.928	0.767	17.396	57508.489	10.703
16669.491	25.653	124.929	587.062	568.350	584.448	0.581	81.262	80.587	8.902	0.738	17.414	57506.774	10.747
16669.712	25.634	124.969	587.541	568.395	584.638	0.590	81.262	80.571	8.869	0.751	17.422	57507.173	10.588
16669.924	25.646	124.967	587.036	568.434	584.098	0.586	81.225	80.564	8.864	0.734	17.417	57505.540	10.873
16670.132	25.640	124.994	587.622	568.464	584.752	0.590	81.305	80.611	8.907	0.761	17.421	57504.550	11.021
16670.345	25.623	124.994	587.205	568.488	584.776	0.589	81.240	80.605	8.862	0.746	17.416	57508.895	10.994
16670.555	25.625	124.981	587.007	568.406	584.538	0.596	81.278	80.548	8.895	0.751	17.415	57506.508	11.082
16670.766	25.647	125.026	587.125	568.498	584.705	0.582	81.278	80.568	8.895	0.735	17.414	57505.932	11.027
16670.976	25.621	125.025	587.756	568.449	584.142	0.582	81.279	80.540	8.902	0.742	17.424	57509.088	10.501
16671.187	25.640	125.039	587.793	568.427	583.942	0.586	81.271	80.541	8.890	0.751	17.413	57508.711	11.060
16671.396	25.586	124.985	587.485	568.319	585.055	0.583	81.222	80.591	8.853	0.730	17.417	57508.725	10.950
16671.606	25.617	125.059	588.083	568.251	584.228	0.584	81.323	80.601	8.922	0.740	17.415	57507.779	11.060
16671.807	25.603	125.010	587.588	568.315	584.462	0.582	81.246	80.534	8.774	0.747	17.408	57506.486	10.884
16672.022	25.630	125.049	587.673	568.363	584.638	0.589	81.320	80.614	8.923	0.737	17.415	57510.388	10.720
16672.237	25.603	125.017	587.196	568.372	584.306	0.599	81.273	80.593	8.904	0.762	17.435	57510.743	10.347
16672.443	25.613	125.051	587.185	568.265	584.214	0.584	81.265	80.587	8.840	0.744	17.414	57513.677	11.027
16672.655	25.626	125.050	586.737	568.283	584.524	0.591	81.267	80.632	8.920	0.757	17.416	57513.670	10.978
16672.855	25.642	125.099	587.537	568.259	584.179	0.584	81.305	80.606	8.794	0.744	17.429	57515.518	10.665
16673.075	25.604	125.081	587.359	568.381	584.595	0.582	81.361	80.664	8.856	0.755	17.413	57513.633	10.660
16673.275	25.647	125.163	587.228	568.421	584.538	0.584	81.281	80.629	8.790	0.737	17.408	57515.266	11.131
16673.475	25.655	125.131	587.117	568.412	584.552	0.589	81.268	80.601	8.913	0.743	17.422	57517.898	11.098
16673.681	25.587	125.135	587.108	568.367	583.953	0.590	81.277	80.598	8.861	0.746	17.410	57516.567	11.131
