MiniLab	10-Dec-12	5:28:41 AM	

Time (sec)	T1 (C)	T2 (C)	T3 (C)	T4 (C)	T5 (C)	P1 (kPa)	P2 (kPa)	P3 (kPa)	P4 (kPa)	P5 (kPa)	Fuel Flow  (L/hr)	N1 (RPM)	Thrust (N)
17007.872	29.359	156.343	649.913	618.495	620.930	0.870	113.400	113.046	12.017	0.918	22.141	64909.116	20.260
17008.072	29.362	156.309	649.716	618.385	621.506	0.912	113.477	113.117	11.811	0.914	22.129	64908.156	20.622
17008.272	29.348	156.396	649.633	618.257	621.070	0.877	113.472	113.043	11.869	0.907	22.136	64909.087	20.414
17008.472	29.351	156.356	649.260	618.215	621.194	0.928	113.475	113.113	11.808	0.905	22.138	64905.761	19.958
17008.672	29.364	156.371	648.866	618.150	621.235	0.846	113.390	113.012	11.930	0.903	22.128	64906.005	19.849
17008.873	29.318	156.347	649.308	618.222	620.996	0.903	113.451	113.095	11.857	0.913	22.144	64903.122	20.414
17009.074	29.325	156.401	648.886	618.379	621.045	0.900	113.389	113.039	11.835	0.921	22.141	64901.600	20.074
17009.274	29.329	156.372	648.677	618.436	621.417	0.897	113.361	113.014	11.911	0.913	22.128	64904.113	19.997
17009.475	29.342	156.415	648.787	618.484	620.785	0.833	113.380	113.038	11.774	0.902	22.140	64899.604	20.249
17009.675	29.337	156.414	649.428	618.478	621.202	0.816	113.293	112.983	11.856	0.918	22.135	64900.757	20.414
17009.875	29.352	156.387	648.991	618.457	620.944	0.795	113.404	113.015	11.988	0.911	22.125	64897.890	20.627
17010.075	29.314	156.440	649.821	618.401	621.205	0.875	113.409	113.017	11.886	0.908	22.140	64897.091	20.825
17010.275	29.314	156.407	648.926	618.325	621.124	0.843	113.417	113.071	11.689	0.911	22.140	64897.550	20.381
17010.475	29.328	156.425	649.759	618.351	620.637	0.892	113.446	113.108	11.953	0.913	22.131	64895.022	20.512
17010.678	29.314	156.492	649.714	618.265	620.589	0.885	113.353	112.981	11.730	0.903	22.137	64893.958	20.611
17010.878	29.307	156.472	649.460	618.406	621.183	0.864	113.405	113.051	11.951	0.912	22.137	64895.310	20.792
17011.078	29.322	156.449	649.939	618.461	621.280	0.815	113.495	113.060	11.748	0.904	22.119	64898.858	20.600
17011.279	29.305	156.462	649.469	618.623	620.950	0.884	113.464	113.096	11.971	0.908	22.131	64898.244	20.518
17011.479	29.316	156.469	650.061	618.655	620.977	0.913	113.482	113.164	11.821	0.918	22.140	64899.286	20.490
17011.679	29.312	156.487	649.532	618.701	620.196	0.847	113.318	113.014	11.868	0.913	22.130	64897.734	20.490
17011.880	29.330	156.469	649.970	618.839	621.099	0.877	113.322	112.978	11.804	0.928	22.131	64897.978	20.364
17012.080	29.362	156.558	649.694	618.807	621.207	0.855	113.408	113.027	11.854	0.918	22.141	64898.503	20.556
17012.280	29.374	156.573	650.046	618.693	620.514	0.737	113.484	113.082	11.862	0.924	22.128	64898.813	20.732
17012.480	29.374	156.532	650.069	618.545	620.710	0.791	113.461	113.029	11.945	0.917	22.138	64898.096	20.375
17012.680	29.340	156.529	649.969	618.389	620.661	0.904	113.336	112.907	11.852	0.918	22.139	64899.316	20.567
17012.880	29.376	156.541	650.082	618.352	621.121	0.907	113.443	112.982	11.861	0.917	22.129	64898.281	20.216
17013.080	29.358	156.623	649.690	618.204	620.935	0.915	113.310	112.930	11.751	0.908	22.136	64898.710	20.485
17013.280	29.382	156.607	649.803	618.229	621.006	0.817	113.382	113.040	11.802	0.912	22.137	64899.043	20.671
17013.480	29.368	156.661	649.536	618.098	621.020	0.848	113.405	113.032	11.819	0.920	22.128	64898.215	20.507
17013.680	29.385	156.599	648.525	618.054	620.851	0.772	113.343	112.951	11.879	0.911	22.131	64895.790	20.216
17013.880	29.383	156.641	649.678	617.941	620.458	0.828	113.331	112.981	11.889	0.912	22.136	64894.815	20.403
17014.080	29.429	156.685	649.449	617.944	620.687	0.856	113.380	113.017	11.775	0.917	22.128	64895.014	20.622
17014.280	29.403	156.704	649.492	617.800	620.118	0.791	113.326	113.027	11.849	0.907	22.146	64894.490	20.227
17014.480	29.382	156.722	649.012	617.696	620.676	0.856	113.429	113.028	12.034	0.919	22.141	64897.165	20.096
17014.680	29.412	156.730	649.178	617.617	620.841	0.905	113.369	112.950	11.823	0.928	22.117	64896.086	20.732
17014.880	29.430	156.731	649.069	617.591	620.844	0.869	113.442	113.127	11.876	0.913	22.138	64895.140	20.781
17015.080	29.449	156.779	649.117	617.607	621.144	0.961	113.559	113.099	11.809	0.919	22.140	64897.793	20.693
17015.280	29.436	156.803	649.700	617.671	620.808	0.909	113.449	113.091	11.741	0.917	22.128	64902.391	20.567
17015.480	29.406	156.709	649.091	617.944	620.577	0.897	113.434	113.092	11.792	0.905	22.142	64903.041	20.836
17015.680	29.429	156.865	650.768	618.233	621.262	0.905	113.411	113.076	11.810	0.913	22.140	64904.113	20.331
17015.880	29.391	156.709	649.895	618.485	620.346	0.861	113.422	113.099	11.847	0.921	22.125	64904.039	20.540
17016.080	29.432	156.804	650.573	618.638	620.842	0.901	113.491	113.201	11.899	0.921	22.135	64904.571	20.764
17016.280	29.391	156.797	650.522	618.845	620.300	0.845	113.432	113.077	11.659	0.921	22.135	64909.656	19.816
17016.480	29.385	156.765	651.100	619.161	620.545	0.920	113.537	113.163	11.733	0.910	22.129	64907.720	20.474
17016.680	29.397	156.825	650.782	619.464	619.852	0.894	113.454	113.009	11.790	0.912	22.140	64910.196	20.425
17016.880	29.422	156.906	651.143	619.535	620.681	0.781	113.499	113.146	11.830	0.910	22.138	64913.307	20.688
17017.080	29.420	156.842	650.798	619.460	620.652	0.843	113.462	113.100	11.915	0.907	22.126	64913.041	20.605
17017.280	29.442	156.890	650.411	619.318	620.480	0.918	113.447	113.104	11.858	0.912	22.141	64914.734	20.276
17017.480	29.444	156.877	650.861	619.277	620.681	0.902	113.445	113.074	11.797	0.916	22.137	64915.717	20.249
17017.680	29.422	156.880	651.023	619.134	620.268	0.833	113.515	113.058	11.824	0.923	22.129	64915.347	20.255
17017.880	29.450	156.960	650.428	619.006	620.849	0.864	113.423	113.008	11.797	0.924	22.144	64916.655	20.545
17018.080	29.485	156.946	650.889	618.837	620.635	0.816	113.517	113.059	11.831	0.910	22.137	64917.062	20.951
17018.280	29.453	156.935	650.057	618.749	620.891	0.840	113.513	113.148	11.783	0.930	22.128	64917.712	20.446
17018.483	29.461	156.979	650.247	618.693	620.605	0.868	113.418	113.115	11.847	0.917	22.144	64916.264	20.298
17018.683	29.491	157.011	650.165	618.665	620.486	0.886	113.478	113.076	11.828	0.922	22.142	64914.963	21.061
17018.883	29.497	156.998	650.612	618.672	620.845	0.834	113.436	113.029	11.788	0.925	22.127	64914.704	20.885
17019.084	29.512	157.027	650.158	618.669	620.599	0.881	113.558	113.243	11.818	0.916	22.144	64915.857	20.600
17019.284	29.493	157.062	650.759	618.819	620.949	0.850	113.426	113.073	11.921	0.930	22.139	64916.655	20.337
17019.484	29.522	156.987	650.143	618.758	620.651	0.913	113.444	113.114	11.876	0.922	22.128	64915.524	20.381
17019.684	29.504	157.058	650.149	618.703	619.988	0.890	113.384	113.036	11.753	0.908	22.148	64915.879	21.006
17019.884	29.512	157.081	649.971	618.678	620.584	0.880	113.339	113.072	11.812	0.919	22.135	64916.980	20.644
17020.084	29.520	157.044	650.346	618.711	620.245	0.835	113.449	113.174	11.831	0.924	22.123	64915.443	20.468
17020.284	29.525	157.041	650.757	618.706	620.539	0.889	113.491	113.102	11.870	0.931	22.142	64913.551	20.858
17020.484	29.543	157.083	650.158	618.663	620.737	0.864	113.476	113.111	11.745	0.915	22.141	64914.756	20.551
17020.684	29.546	157.090	650.130	618.720	620.737	0.849	113.417	112.994	11.903	0.920	22.135	64915.961	20.605
17020.884	29.552	157.115	650.428	618.686	620.052	0.858	113.505	113.092	11.848	0.915	22.147	64916.012	20.359
17021.084	29.595	157.189	650.287	618.600	620.357	0.863	113.430	113.096	11.957	0.928	22.130	64916.419	20.419
17021.284	29.571	157.239	650.553	618.457	620.025	0.873	113.477	113.113	11.885	0.912	22.116	64916.323	20.589
17021.485	29.554	157.175	650.564	618.337	619.917	0.880	113.454	113.024	11.849	0.918	22.142	64918.939	20.556
17021.686	29.558	157.197	651.299	618.135	620.847	0.885	113.405	113.092	11.819	0.918	22.135	64918.533	20.551
17021.886	29.586	157.281	650.318	618.021	619.854	0.897	113.521	113.127	11.816	0.924	22.129	64917.786	20.945
17022.086	29.585	157.196	650.049	618.081	620.152	0.804	113.569	113.151	11.940	0.928	22.140	64919.139	20.244
17022.286	29.546	157.230	650.197	617.952	620.046	0.882	113.603	113.159	11.930	0.933	22.133	64916.227	20.414
17022.486	29.571	157.222	650.529	617.941	620.355	0.869	113.481	113.128	11.892	0.911	22.119	64921.881	20.693
17022.687	29.560	157.195	649.957	617.978	620.125	0.806	113.477	113.047	11.784	0.913	22.142	64920.506	20.457
17022.887	29.548	157.280	650.648	618.030	619.939	0.839	113.449	113.139	11.862	0.912	22.142	64920.920	20.605
17023.087	29.563	157.216	650.791	618.173	620.187	0.808	113.478	113.126	11.648	0.923	22.128	64920.898	20.408
17023.287	29.557	157.300	650.586	618.278	620.672	0.822	113.424	112.992	11.818	0.898	22.147	64919.301	20.348
17023.487	29.561	157.282	650.805	618.467	620.136	0.830	113.465	113.120	12.006	0.929	22.135	64921.777	20.096
17023.687	29.553	157.289	650.991	618.565	620.815	0.967	113.405	113.099	11.830	0.920	22.126	64920.166	20.578
17023.887	29.563	157.264	650.311	618.526	620.808	0.852	113.425	113.027	11.947	0.940	22.142	64919.205	20.359
17024.087	29.550	157.308	650.440	618.581	620.468	0.913	113.321	112.951	11.795	0.920	22.132	64920.868	20.211
17024.287	29.547	157.264	649.886	618.601	620.346	0.851	113.405	113.070	11.872	0.930	22.129	64920.358	19.964
17024.496	29.536	157.374	651.209	618.575	620.179	0.880	113.400	113.119	11.781	0.903	22.145	64919.560	20.540
17024.696	29.578	157.321	650.723	618.653	620.584	0.924	113.404	113.128	11.815	0.910	22.142	64916.892	20.704
17024.896	29.589	157.397	650.409	618.867	620.886	0.883	113.455	113.072	11.779	0.928	22.133	64918.289	20.858
17025.096	29.567	157.351	650.809	619.009	620.281	0.879	113.510	113.136	11.756	0.917	22.149	64919.952	20.096
17025.296	29.543	157.345	651.178	618.990	619.567	0.914	113.487	113.129	11.929	0.908	22.135	64918.636	20.567
17025.496	29.583	157.396	650.593	619.061	620.251	0.888	113.545	113.169	11.914	0.928	22.128	64920.698	20.435
17025.698	29.560	157.340	650.458	619.048	620.520	0.831	113.449	113.075	11.960	0.936	22.138	64923.093	20.403
17025.898	29.590	157.444	650.654	618.836	620.232	0.863	113.522	113.146	11.813	0.928	22.143	64923.655	20.156
17026.098	29.608	157.354	650.080	618.731	620.383	0.835	113.479	113.120	11.851	0.930	22.128	64926.197	20.562
17026.299	29.595	157.397	650.336	618.595	620.912	0.861	113.587	113.277	11.944	0.934	22.141	64927.476	20.940
17026.568	29.626	157.453	650.440	618.589	620.618	0.839	113.501	113.182	11.906	0.928	22.145	64927.402	20.397
17026.768	29.566	157.464	651.080	618.528	620.539	0.885	113.597	113.147	11.910	0.925	22.138	64932.191	20.375
17026.968	29.608	157.456	650.629	618.441	620.171	0.818	113.505	113.147	11.908	0.928	22.129	64932.723	20.923
17027.168	29.609	157.480	650.987	618.227	620.071	0.825	113.376	112.968	11.852	0.927	22.136	64931.718	20.967
17027.368	29.595	157.514	650.973	618.015	620.445	0.816	113.479	113.074	11.760	0.927	22.125	64932.612	20.584
17027.568	29.554	157.475	650.932	617.900	620.480	0.880	113.503	113.181	11.779	0.924	22.135	64932.856	20.529
17027.769	29.596	157.472	650.328	617.836	620.192	0.897	113.476	113.114	11.842	0.928	22.145	64930.964	20.567
17027.969	29.574	157.488	650.327	617.856	620.525	0.947	113.296	112.939	11.858	0.930	22.135	64932.065	20.276
17028.169	29.608	157.567	651.200	617.868	620.328	0.927	113.536	113.114	11.855	0.917	22.134	64931.179	20.375
17028.369	29.615	157.476	650.558	617.815	620.755	0.820	113.455	113.136	11.944	0.919	22.148	64929.641	21.082
17028.570	29.570	157.489	650.683	617.827	621.090	0.930	113.378	113.029	11.874	0.924	22.133	64928.104	20.244
17028.770	29.560	157.499	650.763	617.872	620.127	0.864	113.402	113.008	11.815	0.936	22.138	64929.102	20.792
17028.975	29.603	157.494	651.244	618.010	620.928	0.872	113.602	113.139	11.949	0.911	22.148	64928.363	20.688
17029.175	29.597	157.554	650.700	618.093	620.230	0.853	113.469	113.092	11.843	0.923	22.141	64929.907	20.271
17029.376	29.619	157.564	650.398	618.187	620.270	0.854	113.481	113.123	11.840	0.926	22.126	64926.751	20.573
17029.576	29.635	157.582	650.676	618.299	620.341	0.836	113.528	113.146	11.836	0.924	22.147	64927.335	20.534
17029.776	29.624	157.539	651.067	618.421	620.915	0.866	113.432	113.109	11.849	0.922	22.136	64923.802	20.057
17029.976	29.639	157.628	651.012	618.439	620.402	0.861	113.470	113.091	11.962	0.929	22.128	64924.091	20.392
17030.176	29.599	157.575	650.849	618.379	620.860	0.840	113.444	113.152	11.882	0.920	22.150	64923.921	20.183
17030.376	29.572	157.615	650.561	618.286	620.212	0.913	113.468	113.159	11.806	0.935	22.134	64920.129	19.958
17030.576	29.624	157.557	650.811	618.341	620.572	0.867	113.416	113.001	11.734	0.917	22.136	64920.063	20.847
17030.776	29.636	157.654	650.810	618.390	620.527	0.825	113.367	113.036	11.900	0.913	22.146	64921.467	20.847
17030.976	29.629	157.562	651.097	618.403	620.627	0.823	113.331	113.024	11.792	0.920	22.124	64920.521	20.918
17031.176	29.589	157.590	650.985	618.407	620.517	0.819	113.339	112.972	11.850	0.927	22.121	64920.499	20.282
17031.376	29.591	157.663	650.518	618.445	620.409	0.873	113.492	113.106	11.911	0.930	22.143	64915.694	20.627
17031.576	29.604	157.589	650.957	618.542	620.740	0.734	113.403	113.020	11.979	0.918	22.129	64912.960	20.479
17031.776	29.583	157.574	650.420	618.647	620.106	0.907	113.429	113.102	11.780	0.936	22.133	64914.320	20.589
17031.977	29.598	157.640	650.269	618.684	620.725	0.852	113.453	113.036	11.846	0.921	22.145	64916.892	20.573
17032.177	29.576	157.633	651.000	618.704	620.643	0.890	113.436	113.128	11.827	0.931	22.127	64916.980	20.331
17032.377	29.591	157.637	650.884	618.599	620.034	0.853	113.311	112.976	11.818	0.931	22.126	64914.497	20.594
17032.577	29.636	157.705	650.606	618.724	620.203	0.824	113.383	113.006	11.879	0.923	22.141	64915.221	20.457
17032.777	29.629	157.703	650.866	618.822	620.373	0.869	113.408	113.079	11.896	0.926	22.138	64914.054	20.989
17032.977	29.616	157.682	651.325	618.896	620.360	0.893	113.392	113.033	11.735	0.931	22.137	64914.164	20.584
17033.178	29.611	157.721	650.889	618.886	620.526	0.881	113.423	113.127	11.958	0.923	22.139	64912.036	20.551
17033.378	29.636	157.786	651.090	618.926	620.281	0.867	113.527	113.178	11.845	0.922	22.133	64913.721	20.852
17033.578	29.600	157.669	651.558	618.843	619.872	0.883	113.486	113.092	11.872	0.938	22.130	64915.325	20.929
17033.778	29.634	157.775	652.188	619.025	620.790	0.881	113.393	113.006	11.907	0.923	22.144	64915.199	20.556
17033.978	29.646	157.716	652.494	619.110	620.361	0.841	113.398	113.029	11.986	0.923	22.135	64913.462	20.978
17034.179	29.638	157.760	652.065	619.046	620.406	0.881	113.433	113.081	12.012	0.938	22.139	64913.662	20.649
17034.379	29.633	157.807	652.889	618.907	620.458	0.914	113.293	113.004	11.813	0.925	22.149	64915.295	20.457
17034.579	29.656	157.819	652.490	618.827	620.271	0.872	113.449	113.135	12.010	0.922	22.130	64915.000	20.786
17034.779	29.683	157.815	652.204	618.790	620.440	0.835	113.450	113.013	11.790	0.914	22.132	64913.751	20.682
17034.979	29.663	157.785	652.264	618.791	620.377	0.913	113.448	113.031	11.757	0.929	22.145	64913.721	20.490
17035.179	29.666	157.767	652.525	618.928	620.551	0.817	113.448	113.099	11.892	0.926	22.130	64914.571	20.161
17035.379	29.643	157.819	652.785	619.023	620.333	0.858	113.556	113.167	11.767	0.928	22.139	64915.635	20.562
17035.580	29.628	157.788	652.645	619.000	620.554	0.830	113.403	113.094	11.959	0.924	22.148	64917.350	20.430
17035.785	29.633	157.772	652.010	618.955	620.546	0.940	113.482	113.125	11.831	0.919	22.140	64916.803	20.616
17035.985	29.665	157.814	651.678	618.912	620.463	0.857	113.461	113.111	11.831	0.926	22.132	64917.971	20.814
17036.185	29.662	157.863	651.851	618.875	621.001	0.876	113.545	113.133	11.991	0.938	22.148	64918.850	20.978
17036.385	29.644	157.886	651.281	618.856	619.944	0.903	113.486	113.187	11.874	0.918	22.135	64920.388	20.781
17036.585	29.634	157.908	651.546	618.853	620.411	0.885	113.549	113.116	11.963	0.936	22.130	64920.454	20.293
17036.785	29.655	157.989	652.011	618.669	620.421	0.866	113.519	113.210	11.931	0.921	22.146	64920.912	20.666
17036.985	29.646	157.953	650.883	618.681	620.553	0.843	113.541	113.201	11.839	0.912	22.138	64920.188	20.786
17037.185	29.637	157.855	651.011	618.754	620.079	0.794	113.544	113.169	11.801	0.918	22.132	64920.912	20.079
17037.385	29.655	157.897	650.673	618.903	620.406	0.889	113.521	113.188	11.811	0.931	22.144	64919.294	20.320
17037.586	29.654	157.946	651.317	619.060	620.008	0.848	113.305	113.011	11.802	0.919	22.126	64919.723	20.255
17037.786	29.648	157.911	651.263	619.031	620.220	0.879	113.485	113.163	11.974	0.915	22.126	64920.247	20.638
17037.987	29.629	157.877	651.267	618.906	620.551	0.852	113.415	113.028	11.744	0.925	22.149	64918.843	20.688
17038.186	29.663	157.949	651.486	618.796	620.057	0.887	113.436	113.053	11.818	0.911	22.141	64918.902	20.512
17038.386	29.669	157.962	651.266	618.834	619.809	0.808	113.387	112.964	11.933	0.931	22.131	64916.241	20.896
17038.599	29.670	157.995	650.553	618.827	620.094	0.854	113.489	113.172	11.754	0.924	22.147	64917.749	20.759
17038.799	29.709	158.033	650.449	618.831	620.089	0.865	113.497	113.112	11.916	0.923	22.141	64921.186	20.748
17039.001	29.698	158.003	650.786	618.768	620.414	0.834	113.299	112.938	11.927	0.929	22.126	64919.523	20.244
17039.205	29.687	158.039	650.534	618.722	619.886	0.928	113.443	113.097	11.714	0.933	22.142	64916.604	20.688
17039.405	29.710	158.045	650.766	618.744	620.024	0.898	113.458	113.096	12.010	0.930	22.136	64918.274	20.764
17039.605	29.666	157.995	650.637	618.692	620.387	0.895	113.508	113.165	11.696	0.930	22.126	64916.315	20.633
17039.805	29.673	158.009	650.480	618.659	620.452	0.887	113.554	113.134	11.776	0.935	22.143	64917.387	20.863
17040.005	29.703	158.048	650.997	618.802	620.349	0.848	113.443	113.116	11.884	0.926	22.139	64918.296	20.540
17040.205	29.693	158.089	651.164	618.827	620.140	0.957	113.415	113.054	11.785	0.924	22.131	64916.116	20.638
17040.406	29.700	158.092	650.765	618.916	619.976	0.893	113.467	113.060	11.774	0.932	22.145	64916.892	20.074
17040.606	29.710	158.127	651.274	618.859	619.398	0.876	113.469	113.158	11.765	0.923	22.144	64916.744	19.931
17040.806	29.676	158.012	650.972	618.849	620.104	0.796	113.445	113.073	11.946	0.918	22.131	64916.685	20.496
17041.007	29.678	158.067	651.117	618.830	619.720	0.856	113.461	112.997	11.848	0.922	22.140	64917.106	20.222
17041.207	29.706	158.129	650.183	618.817	620.234	0.865	113.487	113.159	11.819	0.927	22.134	64916.640	20.468
17041.407	29.695	158.116	650.473	618.664	620.098	0.752	113.471	113.139	11.756	0.936	22.136	64916.337	20.529
17041.607	29.696	158.171	650.218	618.553	620.192	0.846	113.500	113.159	11.863	0.920	22.142	64916.493	20.616
17041.807	29.673	158.129	650.473	618.541	619.541	0.836	113.452	113.029	11.895	0.939	22.139	64918.510	20.605
17042.008	29.685	158.161	650.272	618.488	619.925	0.926	113.478	113.106	11.897	0.925	22.127	64918.156	20.435
17042.226	29.723	158.150	650.144	618.446	620.525	0.906	113.396	113.029	11.874	0.922	22.145	64916.493	21.088
17042.426	29.714	158.184	650.456	618.493	619.596	0.887	113.396	113.006	11.857	0.926	22.147	64914.726	20.392
17042.626	29.675	158.164	650.066	618.432	619.977	0.904	113.482	113.079	11.818	0.925	22.139	64914.482	20.359
17042.826	29.668	158.136	650.057	618.359	620.091	0.856	113.421	113.147	11.805	0.920	22.142	64913.411	20.573
17043.027	29.684	158.144	650.535	618.539	620.004	0.849	113.491	113.166	11.925	0.920	22.136	64913.130	21.006
17043.227	29.676	158.165	650.598	618.684	619.955	0.866	113.528	113.181	11.954	0.937	22.124	64914.201	20.512
17043.427	29.700	158.182	651.121	618.773	619.892	0.877	113.608	113.252	11.828	0.932	22.147	64918.015	20.222
17043.627	29.689	158.198	650.832	618.888	619.753	0.876	113.479	113.153	11.927	0.928	22.148	64917.853	20.600
17043.828	29.708	158.266	650.992	619.037	619.935	0.843	113.615	113.232	12.005	0.927	22.128	64917.165	20.962
17044.028	29.699	158.174	651.754	619.016	619.810	0.851	113.640	113.192	11.769	0.917	22.145	64920.233	20.479
17044.228	29.699	158.210	651.378	619.098	620.128	0.877	113.539	113.243	11.837	0.932	22.145	64918.924	20.825
