MiniLab	20-Oct-15	3:19:36 PM	

Time (sec)	T1 (C)	T2 (C)	T3 (C)	T4 (C)	T5 (C)	P1 (kPa)	P2 (kPa)	P3 (kPa)	P4 (kPa)	P5 (kPa)	Fuel Flow  (L/hr)	N1 (RPM)	Thrust (N)
17541.375	31.715	93.824	603.239	661.237	474.442	0.334	43.633	42.641	4.875	3.505	14.150	44993.823	22.645
17541.575	31.727	93.831	603.098	661.228	475.210	0.331	43.607	42.653	4.871	3.509	14.132	44992.899	22.382
17541.777	31.693	93.857	603.132	661.236	474.808	0.330	43.708	42.740	4.881	3.484	14.160	44996.506	21.477
17541.977	31.696	93.896	603.284	661.173	474.607	0.324	43.714	42.706	4.855	3.530	14.148	44995.811	22.102
17542.177	31.679	93.896	602.662	661.210	474.902	0.333	43.705	42.714	4.896	3.499	14.162	44995.863	21.828
17542.377	31.699	93.911	602.853	661.210	474.901	0.330	43.679	42.691	4.891	3.506	14.129	45002.301	21.609
17542.577	31.729	93.909	603.101	661.087	474.633	0.337	43.640	42.654	4.864	3.502	14.136	45001.015	22.524
17542.777	31.700	93.856	603.458	660.940	474.673	0.342	43.567	42.610	4.883	3.514	14.122	44999.233	22.519
17542.977	31.672	93.949	603.091	660.913	474.800	0.329	43.607	42.594	4.869	3.493	14.143	45003.173	21.806
17543.177	31.739	93.947	603.143	660.760	474.954	0.352	43.581	42.645	4.860	3.488	14.141	44999.906	22.305
17543.377	31.691	93.929	602.920	660.677	474.200	0.348	43.593	42.616	4.871	3.514	14.152	45003.646	22.519
17543.577	31.634	93.905	603.721	660.559	474.491	0.332	43.626	42.616	4.867	3.524	14.152	45002.714	22.491
17543.777	31.642	93.912	602.227	660.521	474.299	0.331	43.613	42.661	4.873	3.512	14.149	45001.554	22.442
17543.979	31.653	94.060	603.246	660.505	474.769	0.320	43.667	42.625	4.940	3.487	14.130	45001.990	22.239
17544.181	31.667	93.968	603.102	660.474	473.849	0.334	43.528	42.539	4.885	3.487	14.127	45001.421	22.135
17544.382	31.611	93.967	603.314	660.498	474.480	0.337	43.584	42.590	4.873	3.507	14.164	44996.691	21.959
17544.582	31.639	94.059	602.715	660.538	473.882	0.333	43.619	42.646	4.888	3.498	14.119	44996.277	21.910
17544.782	31.617	94.025	602.879	660.610	474.009	0.318	43.640	42.626	4.929	3.511	14.123	44998.139	22.113
17544.982	31.663	94.041	603.062	660.538	474.055	0.334	43.643	42.638	4.913	3.525	14.138	44993.956	22.261
17545.184	31.647	94.094	602.587	660.670	474.072	0.324	43.736	42.735	4.895	3.473	14.154	44996.166	22.245
17545.384	31.597	94.038	603.334	660.742	473.623	0.327	43.685	42.797	4.897	3.506	14.147	44996.853	21.872
17545.584	31.647	94.068	603.144	660.743	474.165	0.331	43.631	42.626	4.901	3.488	14.151	44993.786	22.108
17545.784	31.597	94.028	603.111	660.680	473.686	0.316	43.635	42.653	4.836	3.516	14.140	44993.151	22.447
17545.986	31.587	94.025	602.760	660.599	473.917	0.304	43.600	42.636	4.868	3.500	14.124	44992.655	21.740
17546.186	31.667	94.124	603.308	660.429	473.558	0.313	43.541	42.539	4.874	3.518	14.129	44993.335	21.833
17546.388	31.648	94.048	602.657	660.360	474.192	0.320	43.603	42.579	4.905	3.481	14.151	44987.799	22.343
17546.588	31.675	94.187	603.469	660.349	473.671	0.328	43.569	42.563	4.859	3.493	14.129	44987.179	22.168
17546.788	31.699	94.098	603.433	660.361	474.175	0.323	43.520	42.523	4.839	3.517	14.148	44983.616	22.250
17546.990	31.631	94.072	603.152	660.423	473.390	0.336	43.579	42.542	4.872	3.500	14.156	44975.131	22.064
17547.192	31.689	94.137	603.290	660.481	473.850	0.323	43.588	42.609	4.859	3.524	14.156	44976.447	21.784
17547.392	31.663	94.135	603.296	660.612	473.395	0.321	43.609	42.615	4.864	3.507	14.152	44974.851	21.855
17547.594	31.700	94.213	603.322	660.635	474.096	0.321	43.564	42.529	4.877	3.506	14.145	44945.819	21.877
17547.796	31.721	94.219	602.844	660.695	472.894	0.323	43.462	42.447	4.862	3.515	14.154	44946.373	22.157
17547.996	31.595	94.084	603.646	660.611	473.947	0.324	43.429	42.485	4.866	3.535	14.132	44944.725	22.245
17548.196	31.659	94.145	603.246	660.557	473.290	0.335	43.487	42.497	4.878	3.494	14.147	44945.804	21.620
17548.396	31.617	94.159	603.329	660.508	473.842	0.319	43.488	42.545	4.868	3.500	14.127	44943.602	22.162
17548.596	31.633	94.047	603.002	660.585	472.851	0.321	43.453	42.447	4.870	3.477	14.134	44939.950	22.206
17548.796	31.566	94.089	603.844	660.710	473.752	0.314	43.471	42.512	4.864	3.509	14.127	44943.047	21.861
17548.996	31.642	94.197	603.723	660.833	473.309	0.302	43.528	42.516	4.910	3.506	14.145	44943.306	21.472
17549.196	31.611	94.136	604.065	661.005	472.713	0.316	43.505	42.516	4.861	3.461	14.161	44941.998	21.954
17549.398	31.690	94.225	603.640	661.223	473.322	0.309	43.443	42.466	4.857	3.537	14.138	44942.338	21.894
17549.598	31.700	94.266	604.177	661.149	473.617	0.327	43.450	42.412	4.858	3.495	14.128	44939.743	22.634
17549.799	31.653	94.230	603.878	661.256	473.645	0.320	43.450	42.472	4.868	3.485	14.116	44941.377	21.938
17549.999	31.681	94.230	604.155	661.262	473.638	0.312	43.410	42.417	4.876	3.512	14.136	44939.588	22.102
17550.199	31.719	94.253	603.889	661.022	473.245	0.310	43.465	42.449	4.865	3.481	14.141	44936.255	22.146
17550.399	31.666	94.156	603.927	660.833	473.636	0.322	43.385	42.413	4.848	3.504	14.132	44934.444	22.502
17550.599	31.654	94.242	604.049	660.714	473.970	0.323	43.374	42.343	4.865	3.524	14.133	44931.939	21.603
17550.799	31.686	94.200	603.718	660.573	473.283	0.332	43.427	42.480	4.893	3.484	14.137	44930.224	22.661
17550.999	31.721	94.302	603.410	660.603	473.233	0.338	43.420	42.465	4.834	3.511	14.143	44933.239	22.502
17551.199	31.713	94.231	603.506	660.598	473.635	0.339	43.474	42.460	4.832	3.463	14.131	44933.173	21.943
17551.399	31.714	94.263	602.967	660.819	473.516	0.338	43.468	42.474	4.907	3.526	14.137	44933.461	21.762
17551.599	31.702	94.348	604.096	660.909	473.439	0.323	43.409	42.443	4.812	3.520	14.122	44933.069	21.811
17551.798	31.780	94.338	604.139	660.946	473.520	0.320	43.392	42.413	4.850	3.502	14.140	44931.695	22.316
17551.998	31.749	94.332	603.878	660.996	473.065	0.336	43.423	42.419	4.862	3.548	14.155	44931.222	21.965
17552.198	31.792	94.370	603.898	661.119	473.175	0.338	43.405	42.422	4.832	3.495	14.135	44934.688	22.371
17552.398	31.779	94.379	604.699	661.191	473.156	0.319	43.558	42.570	4.881	3.510	14.143	44933.542	22.749
17552.598	31.784	94.342	604.311	661.417	473.201	0.321	43.497	42.480	4.925	3.493	14.144	44936.284	22.053
17552.798	31.797	94.401	604.494	661.494	473.538	0.339	43.463	42.454	4.834	3.482	14.161	44939.840	22.968
17552.998	31.802	94.380	605.063	661.626	473.281	0.329	43.468	42.415	4.856	3.495	14.116	44939.995	23.018
17553.198	31.752	94.332	604.471	661.674	473.231	0.341	43.443	42.454	4.838	3.517	14.147	44942.389	22.700
17553.398	31.792	94.411	604.749	661.747	472.885	0.345	43.538	42.561	4.962	3.513	14.140	44941.717	22.404
17553.598	31.776	94.350	604.488	661.790	472.846	0.346	43.503	42.503	4.872	3.496	14.127	44941.451	22.469
17553.800	31.702	94.392	604.206	661.911	473.087	0.340	43.488	42.504	4.872	3.485	14.149	44948.879	22.179
17554.002	31.692	94.384	604.155	661.838	473.208	0.328	43.456	42.446	4.845	3.499	14.144	44949.063	21.899
17554.202	31.748	94.376	604.341	661.665	473.223	0.332	43.438	42.450	4.883	3.534	14.143	44948.095	22.601
17554.402	31.715	94.431	603.997	661.798	473.559	0.330	43.515	42.414	4.850	3.501	14.153	44951.266	21.905
17554.602	31.747	94.481	604.016	661.905	472.947	0.331	43.425	42.452	4.807	3.519	14.118	44952.530	21.910
17554.803	31.693	94.358	603.803	661.953	473.150	0.329	43.475	42.459	4.869	3.519	14.125	44956.218	21.998
17555.005	31.686	94.414	603.959	661.966	473.254	0.337	43.538	42.549	4.874	3.508	14.119	44959.366	21.916
17555.205	31.767	94.462	603.833	661.912	473.474	0.319	43.504	42.566	4.854	3.546	14.143	44957.267	21.938
17555.405	31.750	94.426	603.649	661.719	473.024	0.319	43.499	42.562	4.854	3.514	14.153	44958.945	22.480
17555.605	31.787	94.488	602.922	661.784	472.697	0.331	43.531	42.521	4.847	3.509	14.148	44958.568	22.327
17555.807	31.751	94.455	604.037	661.768	472.853	0.325	43.493	42.497	4.875	3.504	14.156	44982.530	22.283
17556.009	31.728	94.392	603.875	661.730	473.325	0.330	43.536	42.548	4.901	3.491	14.136	44982.559	22.595
17556.211	31.750	94.493	603.770	661.774	473.100	0.334	43.519	42.503	4.862	3.513	14.131	44984.481	22.299
17556.413	31.693	94.402	604.100	661.805	472.417	0.331	43.485	42.505	4.875	3.488	14.135	44984.111	22.574
17556.613	31.764	94.460	604.163	661.749	473.097	0.329	43.502	42.491	4.877	3.473	14.142	44984.259	22.524
17556.813	31.740	94.507	603.613	661.909	472.801	0.317	43.487	42.491	4.839	3.497	14.123	44984.740	21.625
17557.013	31.676	94.417	604.112	661.909	472.590	0.332	43.508	42.535	4.873	3.519	14.113	44983.158	21.916
17557.213	31.712	94.497	603.764	662.070	472.984	0.322	43.468	42.499	4.824	3.506	14.131	44981.946	21.570
17557.415	31.720	94.487	603.569	662.138	472.658	0.321	43.427	42.440	4.848	3.530	14.138	44984.828	21.713
17557.615	31.756	94.484	603.914	662.047	472.897	0.330	43.479	42.453	4.796	3.493	14.143	44982.005	22.058
17557.815	31.749	94.507	603.491	662.024	472.604	0.327	43.487	42.495	4.845	3.486	14.159	44981.406	22.124
17558.015	31.809	94.567	603.589	662.105	473.235	0.331	43.498	42.536	4.898	3.471	14.153	44983.032	22.146
17558.215	31.767	94.548	604.063	662.171	472.246	0.330	43.494	42.515	4.884	3.521	14.123	44983.003	21.795
17558.415	31.722	94.501	604.114	662.058	472.743	0.331	43.585	42.589	4.921	3.521	14.148	44981.480	21.954
17558.615	31.777	94.539	603.616	662.075	473.141	0.332	43.526	42.478	4.891	3.508	14.132	44981.000	21.510
17558.815	31.771	94.660	603.160	662.106	472.791	0.325	43.559	42.543	4.889	3.498	14.153	44983.661	21.970
17559.015	31.734	94.556	603.534	662.006	472.756	0.329	43.555	42.512	4.866	3.528	14.154	44983.106	22.206
17559.215	31.734	94.639	603.112	661.960	472.425	0.322	43.563	42.563	4.848	3.512	14.148	44982.892	21.987
17559.415	31.717	94.617	603.045	661.926	472.661	0.322	43.522	42.553	4.906	3.496	14.162	44983.291	22.212
17559.615	31.765	94.671	603.800	661.875	472.936	0.321	43.508	42.531	4.844	3.531	14.125	44984.873	22.261
17559.815	31.781	94.654	603.711	661.841	473.235	0.318	43.514	42.506	4.856	3.507	14.128	44985.678	22.179
17560.015	31.814	94.681	603.414	661.742	472.391	0.322	43.494	42.579	4.887	3.461	14.118	44985.035	22.442
17560.215	31.759	94.622	603.502	661.479	472.813	0.321	43.518	42.537	4.894	3.510	14.125	44982.966	22.826
17560.415	31.792	94.641	602.959	661.424	473.054	0.321	43.498	42.515	4.846	3.469	14.135	44982.035	22.628
17560.615	31.795	94.738	602.616	661.413	472.818	0.328	43.474	42.515	4.852	3.488	14.140	44983.054	22.195
17560.815	31.745	94.673	603.048	661.232	472.980	0.331	43.520	42.510	4.857	3.487	14.157	44982.478	22.031
17561.015	31.774	94.693	602.599	661.087	472.740	0.327	43.491	42.461	4.873	3.471	14.138	44979.684	21.916
17561.215	31.781	94.691	602.113	660.962	473.031	0.329	43.466	42.507	4.868	3.509	14.129	44979.950	22.157
17561.415	31.810	94.756	602.186	660.781	473.399	0.329	43.412	42.437	4.840	3.469	14.135	44980.697	22.053
17561.615	31.777	94.681	602.788	660.532	472.315	0.334	43.406	42.406	4.835	3.511	14.132	44975.227	22.228
17561.815	31.808	94.718	602.746	660.400	472.985	0.323	43.395	42.402	4.812	3.490	14.136	44975.471	22.316
17562.015	31.860	94.698	602.652	660.309	473.102	0.327	43.369	42.321	4.861	3.494	14.140	44969.995	22.722
17562.215	31.873	94.823	602.584	660.299	473.101	0.330	43.328	42.407	4.853	3.483	14.138	44965.686	22.524
17562.415	31.842	94.793	602.184	660.244	473.075	0.331	43.384	42.409	4.823	3.493	14.145	44963.372	23.012
17562.617	31.820	94.711	602.546	660.337	472.468	0.328	43.308	42.306	4.826	3.473	14.147	44957.755	22.738
17562.817	31.787	94.777	602.633	660.323	472.482	0.330	43.340	42.330	4.840	3.521	14.142	44957.726	22.124
17563.019	31.768	94.704	602.482	660.254	472.600	0.322	43.375	42.371	4.845	3.474	14.145	44953.306	21.959
17563.219	31.783	94.689	603.095	660.275	472.576	0.321	43.372	42.313	4.828	3.490	14.147	44911.717	22.453
17563.419	31.874	94.736	602.685	660.162	472.864	0.325	43.328	42.333	4.850	3.490	14.122	44912.596	22.689
17563.619	31.846	94.743	602.798	660.150	472.503	0.326	43.344	42.395	4.866	3.470	14.138	44910.911	22.519
17563.819	31.793	94.712	602.626	660.223	472.082	0.323	43.419	42.419	4.867	3.504	14.138	44911.673	22.700
17564.019	31.866	94.797	603.153	660.331	472.751	0.327	43.491	42.498	4.870	3.502	14.154	44912.500	22.645
17564.219	31.828	94.826	602.660	660.425	472.702	0.329	43.457	42.374	4.851	3.521	14.146	44915.671	22.179
17564.419	31.838	94.799	602.250	660.548	472.551	0.326	43.502	42.574	4.919	3.486	14.156	44916.979	22.404
17564.619	31.851	94.699	603.335	660.615	472.428	0.336	43.394	42.424	4.847	3.484	14.147	44917.356	22.453
17564.821	31.865	94.825	602.916	660.768	472.463	0.331	43.463	42.520	4.852	3.529	14.128	44924.112	22.080
17565.023	31.842	94.814	603.141	660.889	472.603	0.329	43.566	42.585	4.885	3.511	14.125	44923.446	22.157
17565.223	31.815	94.797	603.047	661.063	472.047	0.327	43.545	42.572	4.895	3.488	14.136	44933.587	22.179
17565.423	31.866	94.818	603.321	661.277	472.218	0.322	43.543	42.558	4.884	3.517	14.142	44932.936	22.173
17565.623	31.778	94.770	604.180	661.434	472.937	0.330	43.550	42.571	4.852	3.533	14.155	44932.862	22.305
17565.823	31.826	94.802	602.801	661.567	472.618	0.328	43.493	42.491	4.885	3.513	14.152	44943.188	22.272
17566.023	31.907	94.832	603.517	661.575	472.105	0.330	43.445	42.460	4.816	3.482	14.145	44942.840	22.765
17566.223	31.908	94.857	603.020	661.572	472.254	0.331	43.591	42.543	4.857	3.500	14.142	44970.519	22.261
17566.423	31.880	94.834	602.785	661.636	472.248	0.325	43.576	42.601	4.888	3.474	14.135	44976.987	22.409
17566.623	31.878	94.780	603.687	661.640	471.890	0.331	43.488	42.481	4.864	3.491	14.135	44977.208	22.146
17566.823	31.904	94.813	603.295	661.657	472.555	0.324	43.560	42.545	4.919	3.507	14.146	44982.581	22.113
17567.023	31.953	94.817	603.412	661.621	472.578	0.332	43.531	42.532	4.885	3.503	14.124	44979.581	23.105
17567.224	31.983	94.783	603.263	661.659	472.319	0.332	43.595	42.556	4.844	3.507	14.133	44981.709	22.952
17567.424	31.940	94.823	603.597	661.570	472.517	0.333	43.553	42.541	4.867	3.492	14.138	44983.099	23.297
